# Wavelength(micron) Flux(mJy)
0.450000 0.000000
0.460000 0.000000
0.470000 0.000000
0.480000 0.000000
0.490000 0.000000
0.500000 0.000000
0.510000 0.000000
0.520000 0.000000
0.530000 0.000000
0.540000 0.000000
0.550000 0.000000
0.560000 0.000000
0.570000 0.000000
0.580000 0.000000
0.590000 0.000000
0.600000 0.000000
0.610000 0.000000
0.620000 0.000000
0.630000 0.000000
0.640000 0.000000
0.650000 0.000000
0.660000 0.000000
0.670000 0.000000
0.680000 0.000000
0.690000 0.000000
0.700000 0.000000
0.710000 0.000000
0.720000 0.000000
0.730000 0.000000
0.740000 0.000000
0.750000 0.000000
0.760000 0.000000
0.770000 0.000000
0.780000 0.000000
0.790000 0.000000
0.800000 0.000000
0.810000 0.000000
0.820000 0.000000
0.830000 0.000000
0.840000 0.000000
0.850000 0.000000
0.860000 0.000000
0.870000 0.000000
0.880000 0.000000
0.890000 0.000000
0.900000 0.000000
0.910000 0.000000
0.920000 0.000000
0.930000 0.000000
0.940000 0.000000
0.950000 0.000000
0.960000 0.000000
0.970000 0.000000
0.980000 0.000000
0.990000 0.000000
1.000000 0.000000
1.010000 0.000000
1.020000 0.000000
1.030000 0.000000
1.040000 0.000000
1.050000 0.000000
1.060000 0.000000
1.070000 0.000000
1.080000 0.000000
1.090000 0.000000
1.100000 0.000000
1.110000 0.000000
1.120000 0.000000
1.130000 0.000000
1.140000 0.000000
1.150000 0.000000
1.160000 0.000000
1.170000 0.000000
1.180000 0.000000
1.190000 0.000000
1.200000 0.000000
1.210000 0.000000
1.220000 0.000000
1.230000 0.000000
1.240000 0.000000
1.250000 0.000000
1.260000 0.000000
1.270000 0.000000
1.280000 0.000000
1.290000 0.000000
1.300000 0.000000
1.310000 0.000000
1.320000 0.000000
1.330000 0.000000
1.340000 0.000000
1.350000 0.000000
1.360000 0.000000
1.370000 0.000000
1.380000 0.000000
1.390000 0.000000
1.400000 0.000000
1.410000 0.000000
1.420000 0.000000
1.430000 0.000000
1.440000 0.000000
1.450000 0.000000
1.460000 0.000000
1.470000 0.000000
1.480000 0.000000
1.490000 0.000000
1.500000 0.000000
1.510000 0.000000
1.520000 0.000000
1.530000 0.000000
1.540000 0.000000
1.550000 0.000000
1.560000 0.000000
1.570000 0.000000
1.580000 0.000000
1.590000 0.000000
1.600000 0.000000
1.610000 0.000000
1.620000 0.000000
1.630000 0.000000
1.640000 0.000000
1.650000 0.000000
1.660000 0.000000
1.670000 0.000000
1.680000 0.000000
1.690000 0.000000
1.700000 0.000000
1.710000 0.000000
1.720000 0.000001
1.730000 0.000001
1.740000 0.000001
1.750000 0.000001
1.760000 0.000001
1.770000 0.000001
1.780000 0.000001
1.790000 0.000002
1.800000 0.000002
1.810000 0.000002
1.820000 0.000003
1.830000 0.000003
1.840000 0.000004
1.850000 0.000004
1.860000 0.000005
1.870000 0.000006
1.880000 0.000007
1.890000 0.000008
1.900000 0.000009
1.910000 0.000010
1.920000 0.000012
1.930000 0.000014
1.940000 0.000016
1.950000 0.000018
1.960000 0.000021
1.970000 0.000024
1.980000 0.000027
1.990000 0.000031
2.000000 0.000035
2.010000 0.000040
2.020000 0.000046
2.030000 0.000052
2.040000 0.000059
2.050000 0.000067
2.060000 0.000075
2.070000 0.000085
2.080000 0.000096
2.090000 0.000108
2.100000 0.000121
2.110000 0.000136
2.120000 0.000152
2.130000 0.000171
2.140000 0.000191
2.150000 0.000214
2.160000 0.000239
2.170000 0.000266
2.180000 0.000297
2.190000 0.000330
2.200000 0.000367
2.210000 0.000408
2.220000 0.000453
2.230000 0.000502
2.240000 0.000556
2.250000 0.000616
2.260000 0.000681
2.270000 0.000752
2.280000 0.000829
2.290000 0.000914
2.300000 0.001007
2.310000 0.001109
2.320000 0.001219
2.330000 0.001339
2.340000 0.001470
2.350000 0.001612
2.360000 0.001767
2.370000 0.001935
2.380000 0.002117
2.390000 0.002314
2.400000 0.002528
2.410000 0.002760
2.420000 0.003010
2.430000 0.003281
2.440000 0.003573
2.450000 0.003888
2.460000 0.004228
2.470000 0.004595
2.480000 0.004990
2.490000 0.005414
2.500000 0.005871
2.510000 0.006363
2.520000 0.006890
2.530000 0.007457
2.540000 0.008064
2.550000 0.008716
2.560000 0.009414
2.570000 0.010161
2.580000 0.010961
2.590000 0.011817
2.600000 0.012731
2.610000 0.013708
2.620000 0.014751
2.630000 0.015864
2.640000 0.017050
2.650000 0.018316
2.660000 0.019663
2.670000 0.021098
2.680000 0.022625
2.690000 0.024249
2.700000 0.025975
2.710000 0.027809
2.720000 0.029756
2.730000 0.031823
2.740000 0.034016
2.750000 0.036341
2.760000 0.038806
2.770000 0.041416
2.780000 0.044180
2.790000 0.047105
2.800000 0.050199
2.810000 0.053470
2.820000 0.056927
2.830000 0.060579
2.840000 0.064435
2.850000 0.068505
2.860000 0.072798
2.870000 0.077326
2.880000 0.082098
2.890000 0.087125
2.900000 0.092420
2.910000 0.097994
2.920000 0.103860
2.930000 0.110030
2.940000 0.116517
2.950000 0.123335
2.960000 0.130498
2.970000 0.138021
2.980000 0.145918
2.990000 0.154206
3.000000 0.162899
3.010000 0.172016
3.020000 0.181572
3.030000 0.191585
3.040000 0.202073
3.050000 0.213056
3.060000 0.224551
3.070000 0.236580
3.080000 0.249161
3.090000 0.262317
3.100000 0.276069
3.110000 0.290438
3.120000 0.305448
3.130000 0.321122
3.140000 0.337485
3.150000 0.354559
3.160000 0.372372
3.170000 0.390950
3.180000 0.410318
3.190000 0.430504
3.200000 0.451536
3.210000 0.473444
3.220000 0.496256
3.230000 0.520004
3.240000 0.544717
3.250000 0.570428
3.260000 0.597170
3.270000 0.624975
3.280000 0.653878
3.290000 0.683913
3.300000 0.715117
3.310000 0.747526
3.320000 0.781176
3.330000 0.816107
3.340000 0.852357
3.350000 0.889966
3.360000 0.928974
3.370000 0.969424
3.380000 1.011357
3.390000 1.054817
3.400000 1.099849
3.410000 1.146496
3.420000 1.194805
3.430000 1.244824
3.440000 1.296599
3.450000 1.350179
3.460000 1.405614
3.470000 1.462956
3.480000 1.522254
3.490000 1.583562
3.500000 1.646933
3.510000 1.712421
3.520000 1.780083
3.530000 1.849973
3.540000 1.922150
3.550000 1.996672
3.560000 2.073598
3.570000 2.152988
3.580000 2.234904
3.590000 2.319408
3.600000 2.406562
3.610000 2.496433
3.620000 2.589084
3.630000 2.684583
3.640000 2.782996
3.650000 2.884392
3.660000 2.988840
3.670000 3.096411
3.680000 3.207176
3.690000 3.321208
3.700000 3.438580
3.710000 3.559367
3.720000 3.683645
3.730000 3.811490
3.740000 3.942979
3.750000 4.078192
3.760000 4.217209
3.770000 4.360110
3.780000 4.506976
3.790000 4.657892
3.800000 4.812941
3.810000 4.972207
3.820000 5.135778
3.830000 5.303739
3.840000 5.476180
3.850000 5.653189
3.860000 5.834856
3.870000 6.021273
3.880000 6.212532
3.890000 6.408725
3.900000 6.609948
3.910000 6.816296
3.920000 7.027864
3.930000 7.244751
3.940000 7.467054
3.950000 7.694873
3.960000 7.928308
3.970000 8.167461
3.980000 8.412433
3.990000 8.663328
4.000000 8.920250
4.010000 9.183305
4.020000 9.452598
4.030000 9.728237
4.040000 10.010330
4.050000 10.298985
4.060000 10.594313
4.070000 10.896426
4.080000 11.205433
4.090000 11.521449
4.100000 11.844587
4.110000 12.174961
4.120000 12.512687
4.130000 12.857881
4.140000 13.210660
4.150000 13.571143
4.160000 13.939449
4.170000 14.315696
4.180000 14.700006
4.190000 15.092501
4.200000 15.493302
4.210000 15.902532
4.220000 16.320316
4.230000 16.746778
4.240000 17.182043
4.250000 17.626238
4.260000 18.079489
4.270000 18.541925
4.280000 19.013674
4.290000 19.494864
4.300000 19.985627
4.310000 20.486091
4.320000 20.996390
4.330000 21.516654
4.340000 22.047016
4.350000 22.587610
4.360000 23.138569
4.370000 23.700028
4.380000 24.272123
4.390000 24.854988
4.400000 25.448760
4.410000 26.053577
4.420000 26.669575
4.430000 27.296892
4.440000 27.935668
4.450000 28.586042
4.460000 29.248152
4.470000 29.922140
4.480000 30.608145
4.490000 31.306309
4.500000 32.016773
4.510000 32.739680
4.520000 33.475171
4.530000 34.223390
4.540000 34.984479
4.550000 35.758583
4.560000 36.545846
4.570000 37.346410
4.580000 38.160423
4.590000 38.988027
4.600000 39.829370
4.610000 40.684596
4.620000 41.553851
4.630000 42.437281
4.640000 43.335033
4.650000 44.247254
4.660000 45.174091
4.670000 46.115690
4.680000 47.072199
4.690000 48.043766
4.700000 49.030537
4.710000 50.032662
4.720000 51.050288
4.730000 52.083563
4.740000 53.132635
4.750000 54.197652
4.760000 55.278764
4.770000 56.376118
4.780000 57.489863
4.790000 58.620148
4.800000 59.767120
4.810000 60.930929
4.820000 62.111724
4.830000 63.309652
4.840000 64.524862
4.850000 65.757502
4.860000 67.007722
4.870000 68.275669
4.880000 69.561491
4.890000 70.865337
4.900000 72.187354
4.910000 73.527691
4.920000 74.886494
4.930000 76.263912
4.940000 77.660092
4.950000 79.075181
4.960000 80.509325
4.970000 81.962672
4.980000 83.435367
4.990000 84.927558
5.000000 86.439389
5.010000 87.971007
5.020000 89.522557
5.030000 91.094184
5.040000 92.686032
5.050000 94.298246
5.060000 95.930971
5.070000 97.584348
5.080000 99.258523
5.090000 100.953637
5.100000 102.669834
5.110000 104.407254
5.120000 106.166041
5.130000 107.946335
5.140000 109.748276
5.150000 111.572005
5.160000 113.417662
5.170000 115.285387
5.180000 117.175317
5.190000 119.087591
5.200000 121.022346
5.210000 122.979721
5.220000 124.959852
5.230000 126.962874
5.240000 128.988923
5.250000 131.038134
5.260000 133.110641
5.270000 135.206578
5.280000 137.326079
5.290000 139.469274
5.300000 141.636297
5.310000 143.827278
5.320000 146.042348
5.330000 148.281635
5.340000 150.545271
5.350000 152.833382
5.360000 155.146097
5.370000 157.483542
5.380000 159.845843
5.390000 162.233126
5.400000 164.645516
5.410000 167.083137
5.420000 169.546111
5.430000 172.034561
5.440000 174.548609
5.450000 177.088375
5.460000 179.653980
5.470000 182.245541
5.480000 184.863179
5.490000 187.507010
5.500000 190.177151
5.510000 192.873717
5.520000 195.596824
5.530000 198.346585
5.540000 201.123114
5.550000 203.926523
5.560000 206.756924
5.570000 209.614426
5.580000 212.499139
5.590000 215.411172
5.600000 218.350633
5.610000 221.317628
5.620000 224.312264
5.630000 227.334644
5.640000 230.384874
5.650000 233.463055
5.660000 236.569290
5.670000 239.703681
5.680000 242.866326
5.690000 246.057325
5.700000 249.276776
5.710000 252.524776
5.720000 255.801422
5.730000 259.106807
5.740000 262.441027
5.750000 265.804173
5.760000 269.196339
5.770000 272.617614
5.780000 276.068090
5.790000 279.547854
5.800000 283.056995
5.810000 286.595599
5.820000 290.163751
5.830000 293.761538
5.840000 297.389041
5.850000 301.046344
5.860000 304.733527
5.870000 308.450672
5.880000 312.197857
5.890000 315.975161
5.900000 319.782661
5.910000 323.620432
5.920000 327.488550
5.930000 331.387088
5.940000 335.316119
5.950000 339.275714
5.960000 343.265944
5.970000 347.286879
5.980000 351.338586
5.990000 355.421132
6.000000 359.534585
6.010000 363.679007
6.020000 367.854464
6.030000 372.061017
6.040000 376.298729
6.050000 380.567660
6.060000 384.867868
6.070000 389.199412
6.080000 393.562349
6.090000 397.956735
6.100000 402.382624
6.110000 406.840070
6.120000 411.329125
6.130000 415.849841
6.140000 420.402268
6.150000 424.986454
6.160000 429.602448
6.170000 434.250296
6.180000 438.930044
6.190000 443.641736
6.200000 448.385416
6.210000 453.161125
6.220000 457.968905
6.230000 462.808795
6.240000 467.680835
6.250000 472.585061
6.260000 477.521510
6.270000 482.490217
6.280000 487.491217
6.290000 492.524543
6.300000 497.590225
6.310000 502.688296
6.320000 507.818784
6.330000 512.981718
6.340000 518.177126
6.350000 523.405033
6.360000 528.665464
6.370000 533.958444
6.380000 539.283995
6.390000 544.642139
6.400000 550.032896
6.410000 555.456285
6.420000 560.912326
6.430000 566.401035
6.440000 571.922428
6.450000 577.476520
6.460000 583.063325
6.470000 588.682855
6.480000 594.335122
6.490000 600.020137
6.500000 605.737908
6.510000 611.488445
6.520000 617.271754
6.530000 623.087842
6.540000 628.936712
6.550000 634.818370
6.560000 640.732818
6.570000 646.680057
6.580000 652.660089
6.590000 658.672912
6.600000 664.718526
6.610000 670.796927
6.620000 676.908112
6.630000 683.052076
6.640000 689.228813
6.650000 695.438317
6.660000 701.680580
6.670000 707.955592
6.680000 714.263343
6.690000 720.603823
6.700000 726.977019
6.710000 733.382918
6.720000 739.821506
6.730000 746.292767
6.740000 752.796686
6.750000 759.333246
6.760000 765.902427
6.770000 772.504210
6.780000 779.138576
6.790000 785.805503
6.800000 792.504968
6.810000 799.236949
6.820000 806.001421
6.830000 812.798358
6.840000 819.627735
6.850000 826.489524
6.860000 833.383697
6.870000 840.310224
6.880000 847.269076
6.890000 854.260222
6.900000 861.283629
6.910000 868.339264
6.920000 875.427094
6.930000 882.547083
6.940000 889.699195
6.950000 896.883395
6.960000 904.099643
6.970000 911.347902
6.980000 918.628132
6.990000 925.940293
7.000000 933.284343
7.010000 940.660239
7.020000 948.067940
7.030000 955.507400
7.040000 962.978575
7.050000 970.481418
7.060000 978.015884
7.070000 985.581925
7.080000 993.179492
7.090000 1000.808536
7.100000 1008.469008
7.110000 1016.160855
7.120000 1023.884026
7.130000 1031.638468
7.140000 1039.424129
7.150000 1047.240954
7.160000 1055.088886
7.170000 1062.967872
7.180000 1070.877854
7.190000 1078.818773
7.200000 1086.790573
7.210000 1094.793194
7.220000 1102.826575
7.230000 1110.890657
7.240000 1118.985377
7.250000 1127.110674
7.260000 1135.266484
7.270000 1143.452744
7.280000 1151.669389
7.290000 1159.916353
7.300000 1168.193572
7.310000 1176.500977
7.320000 1184.838502
7.330000 1193.206079
7.340000 1201.603637
7.350000 1210.031109
7.360000 1218.488423
7.370000 1226.975508
7.380000 1235.492292
7.390000 1244.038704
7.400000 1252.614670
7.410000 1261.220116
7.420000 1269.854968
7.430000 1278.519151
7.440000 1287.212588
7.450000 1295.935204
7.460000 1304.686921
7.470000 1313.467661
7.480000 1322.277347
7.490000 1331.115898
7.500000 1339.983236
7.510000 1348.879280
7.520000 1357.803950
7.530000 1366.757163
7.540000 1375.738838
7.550000 1384.748892
7.560000 1393.787242
7.570000 1402.853804
7.580000 1411.948493
7.590000 1421.071225
7.600000 1430.221913
7.610000 1439.400473
7.620000 1448.606816
7.630000 1457.840856
7.640000 1467.102505
7.650000 1476.391674
7.660000 1485.708276
7.670000 1495.052219
7.680000 1504.423415
7.690000 1513.821773
7.700000 1523.247203
7.710000 1532.699611
7.720000 1542.178908
7.730000 1551.684999
7.740000 1561.217793
7.750000 1570.777195
7.760000 1580.363113
7.770000 1589.975451
7.780000 1599.614115
7.790000 1609.279009
7.800000 1618.970038
7.810000 1628.687105
7.820000 1638.430115
7.830000 1648.198969
7.840000 1657.993571
7.850000 1667.813822
7.860000 1677.659624
7.870000 1687.530878
7.880000 1697.427485
7.890000 1707.349346
7.900000 1717.296361
7.910000 1727.268428
7.920000 1737.265448
7.930000 1747.287320
7.940000 1757.333941
7.950000 1767.405210
7.960000 1777.501025
7.970000 1787.621282
7.980000 1797.765880
7.990000 1807.934714
8.000000 1818.127682
8.010000 1828.344678
8.020000 1838.585599
8.030000 1848.850340
8.040000 1859.138796
8.050000 1869.450862
8.060000 1879.786432
8.070000 1890.145400
8.080000 1900.527661
8.090000 1910.933106
8.100000 1921.361630
8.110000 1931.813125
8.120000 1942.287485
8.130000 1952.784601
8.140000 1963.304365
8.150000 1973.846669
8.160000 1984.411406
8.170000 1994.998465
8.180000 2005.607738
8.190000 2016.239116
8.200000 2026.892489
8.210000 2037.567747
8.220000 2048.264782
8.230000 2058.983481
8.240000 2069.723736
8.250000 2080.485435
8.260000 2091.268468
8.270000 2102.072723
8.280000 2112.898089
8.290000 2123.744455
8.300000 2134.611709
8.310000 2145.499740
8.320000 2156.408435
8.330000 2167.337682
8.340000 2178.287369
8.350000 2189.257383
8.360000 2200.247611
8.370000 2211.257941
8.380000 2222.288259
8.390000 2233.338453
8.400000 2244.408409
8.410000 2255.498013
8.420000 2266.607152
8.430000 2277.735712
8.440000 2288.883580
8.450000 2300.050640
8.460000 2311.236780
8.470000 2322.441884
8.480000 2333.665839
8.490000 2344.908530
8.500000 2356.169842
8.510000 2367.449660
8.520000 2378.747871
8.530000 2390.064358
8.540000 2401.399007
8.550000 2412.751703
8.560000 2424.122331
8.570000 2435.510775
8.580000 2446.916921
8.590000 2458.340652
8.600000 2469.781854
8.610000 2481.240410
8.620000 2492.716206
8.630000 2504.209126
8.640000 2515.719054
8.650000 2527.245874
8.660000 2538.789470
8.670000 2550.349728
8.680000 2561.926531
8.690000 2573.519763
8.700000 2585.129308
8.710000 2596.755050
8.720000 2608.396874
8.730000 2620.054664
8.740000 2631.728303
8.750000 2643.417676
8.760000 2655.122667
8.770000 2666.843159
8.780000 2678.579037
8.790000 2690.330186
8.800000 2702.096487
8.810000 2713.877827
8.820000 2725.674089
8.830000 2737.485157
8.840000 2749.310916
8.850000 2761.151248
8.860000 2773.006040
8.870000 2784.875174
8.880000 2796.758535
8.890000 2808.656008
8.900000 2820.567476
8.910000 2832.492824
8.920000 2844.431937
8.930000 2856.384699
8.940000 2868.350994
8.950000 2880.330707
8.960000 2892.323724
8.970000 2904.329927
8.980000 2916.349203
8.990000 2928.381435
9.000000 2940.426510
9.010000 2952.484312
9.020000 2964.554726
9.030000 2976.637637
9.040000 2988.732930
9.050000 3000.840492
9.060000 3012.960206
9.070000 3025.091960
9.080000 3037.235637
9.090000 3049.391125
9.100000 3061.558309
9.110000 3073.737074
9.120000 3085.927308
9.130000 3098.128895
9.140000 3110.341723
9.150000 3122.565677
9.160000 3134.800644
9.170000 3147.046511
9.180000 3159.303165
9.190000 3171.570492
9.200000 3183.848379
9.210000 3196.136713
9.220000 3208.435382
9.230000 3220.744273
9.240000 3233.063274
9.250000 3245.392271
9.260000 3257.731154
9.270000 3270.079809
9.280000 3282.438126
9.290000 3294.805992
9.300000 3307.183295
9.310000 3319.569925
9.320000 3331.965769
9.330000 3344.370718
9.340000 3356.784659
9.350000 3369.207482
9.360000 3381.639076
9.370000 3394.079331
9.380000 3406.528137
9.390000 3418.985383
9.400000 3431.450960
9.410000 3443.924757
9.420000 3456.406665
9.430000 3468.896575
9.440000 3481.394377
9.450000 3493.899963
9.460000 3506.413223
9.470000 3518.934048
9.480000 3531.462331
9.490000 3543.997963
9.500000 3556.540835
9.510000 3569.090841
9.520000 3581.647871
9.530000 3594.211819
9.540000 3606.782578
9.550000 3619.360039
9.560000 3631.944097
9.570000 3644.534644
9.580000 3657.131575
9.590000 3669.734782
9.600000 3682.344159
9.610000 3694.959602
9.620000 3707.581003
9.630000 3720.208258
9.640000 3732.841262
9.650000 3745.479909
9.660000 3758.124094
9.670000 3770.773714
9.680000 3783.428663
9.690000 3796.088838
9.700000 3808.754135
9.710000 3821.424449
9.720000 3834.099679
9.730000 3846.779719
9.740000 3859.464469
9.750000 3872.153823
9.760000 3884.847681
9.770000 3897.545940
9.780000 3910.248498
9.790000 3922.955253
9.800000 3935.666103
9.810000 3948.380948
9.820000 3961.099686
9.830000 3973.822216
9.840000 3986.548438
9.850000 3999.278252
9.860000 4012.011557
9.870000 4024.748253
9.880000 4037.488242
9.890000 4050.231423
9.900000 4062.977697
9.910000 4075.726966
9.920000 4088.479132
9.930000 4101.234095
9.940000 4113.991758
9.950000 4126.752023
9.960000 4139.514792
9.970000 4152.279968
9.980000 4165.047455
9.990000 4177.817155
10.000000 4190.588972
10.010000 4203.362809
10.020000 4216.138571
10.030000 4228.916162
10.040000 4241.695486
10.050000 4254.476448
10.060000 4267.258954
10.070000 4280.042909
10.080000 4292.828218
10.090000 4305.614788
10.100000 4318.402524
10.110000 4331.191332
10.120000 4343.981121
10.130000 4356.771796
10.140000 4369.563264
10.150000 4382.355435
10.160000 4395.148214
10.170000 4407.941511
10.180000 4420.735233
10.190000 4433.529290
10.200000 4446.323590
10.210000 4459.118043
10.220000 4471.912557
10.230000 4484.707043
10.240000 4497.501411
10.250000 4510.295571
10.260000 4523.089434
10.270000 4535.882910
10.280000 4548.675911
10.290000 4561.468349
10.300000 4574.260134
10.310000 4587.051179
10.320000 4599.841397
10.330000 4612.630699
10.340000 4625.418999
10.350000 4638.206210
10.360000 4650.992246
10.370000 4663.777020
10.380000 4676.560446
10.390000 4689.342438
10.400000 4702.122912
10.410000 4714.901781
10.420000 4727.678962
10.430000 4740.454369
10.440000 4753.227919
10.450000 4765.999528
10.460000 4778.769111
10.470000 4791.536586
10.480000 4804.301870
10.490000 4817.064879
10.500000 4829.825531
10.510000 4842.583745
10.520000 4855.339437
10.530000 4868.092527
10.540000 4880.842934
10.550000 4893.590575
10.560000 4906.335371
10.570000 4919.077241
10.580000 4931.816105
10.590000 4944.551883
10.600000 4957.284496
10.610000 4970.013864
10.620000 4982.739908
10.630000 4995.462550
10.640000 5008.181711
10.650000 5020.897314
10.660000 5033.609280
10.670000 5046.317532
10.680000 5059.021993
10.690000 5071.722585
10.700000 5084.419234
10.710000 5097.111861
10.720000 5109.800391
10.730000 5122.484748
10.740000 5135.164858
10.750000 5147.840644
10.760000 5160.512033
10.770000 5173.178948
10.780000 5185.841317
10.790000 5198.499066
10.800000 5211.152120
10.810000 5223.800406
10.820000 5236.443852
10.830000 5249.082385
10.840000 5261.715931
10.850000 5274.344420
10.860000 5286.967778
10.870000 5299.585936
10.880000 5312.198820
10.890000 5324.806361
10.900000 5337.408488
10.910000 5350.005129
10.920000 5362.596216
10.930000 5375.181679
10.940000 5387.761447
10.950000 5400.335452
10.960000 5412.903625
10.970000 5425.465897
10.980000 5438.022200
10.990000 5450.572466
11.000000 5463.116627
11.010000 5475.654616
11.020000 5488.186365
11.030000 5500.711809
11.040000 5513.230879
11.050000 5525.743510
11.060000 5538.249636
11.070000 5550.749192
11.080000 5563.242111
11.090000 5575.728329
11.100000 5588.207781
11.110000 5600.680403
11.120000 5613.146130
11.130000 5625.604898
11.140000 5638.056645
11.150000 5650.501305
11.160000 5662.938817
11.170000 5675.369118
11.180000 5687.792144
11.190000 5700.207835
11.200000 5712.616128
11.210000 5725.016961
11.220000 5737.410273
11.230000 5749.796003
11.240000 5762.174091
11.250000 5774.544476
11.260000 5786.907097
11.270000 5799.261896
11.280000 5811.608811
11.290000 5823.947785
11.300000 5836.278758
11.310000 5848.601671
11.320000 5860.916465
11.330000 5873.223084
11.340000 5885.521468
11.350000 5897.811560
11.360000 5910.093303
11.370000 5922.366640
11.380000 5934.631515
11.390000 5946.887869
11.400000 5959.135649
11.410000 5971.374796
11.420000 5983.605257
11.430000 5995.826975
11.440000 6008.039896
11.450000 6020.243965
11.460000 6032.439127
11.470000 6044.625328
11.480000 6056.802514
11.490000 6068.970632
11.500000 6081.129627
11.510000 6093.279448
11.520000 6105.420041
11.530000 6117.551353
11.540000 6129.673333
11.550000 6141.785928
11.560000 6153.889087
11.570000 6165.982758
11.580000 6178.066890
11.590000 6190.141431
11.600000 6202.206333
11.610000 6214.261543
11.620000 6226.307012
11.630000 6238.342691
11.640000 6250.368529
11.650000 6262.384477
11.660000 6274.390487
11.670000 6286.386510
11.680000 6298.372496
11.690000 6310.348399
11.700000 6322.314169
11.710000 6334.269760
11.720000 6346.215124
11.730000 6358.150214
11.740000 6370.074982
11.750000 6381.989383
11.760000 6393.893370
11.770000 6405.786897
11.780000 6417.669918
11.790000 6429.542388
11.800000 6441.404260
11.810000 6453.255492
11.820000 6465.096036
11.830000 6476.925850
11.840000 6488.744889
11.850000 6500.553108
11.860000 6512.350465
11.870000 6524.136915
11.880000 6535.912415
11.890000 6547.676923
11.900000 6559.430396
11.910000 6571.172791
11.920000 6582.904067
11.930000 6594.624180
11.940000 6606.333090
11.950000 6618.030756
11.960000 6629.717135
11.970000 6641.392187
11.980000 6653.055872
11.990000 6664.708149
12.000000 6676.348977
12.010000 6687.978318
12.020000 6699.596131
12.030000 6711.202377
12.040000 6722.797016
12.050000 6734.380010
12.060000 6745.951321
12.070000 6757.510909
12.080000 6769.058737
12.090000 6780.594766
12.100000 6792.118959
12.110000 6803.631279
12.120000 6815.131688
12.130000 6826.620149
12.140000 6838.096626
12.150000 6849.561082
12.160000 6861.013481
12.170000 6872.453787
12.180000 6883.881964
12.190000 6895.297976
12.200000 6906.701789
12.210000 6918.093368
12.220000 6929.472676
12.230000 6940.839681
12.240000 6952.194348
12.250000 6963.536642
12.260000 6974.866530
12.270000 6986.183977
12.280000 6997.488952
12.290000 7008.781420
12.300000 7020.061348
12.310000 7031.328704
12.320000 7042.583456
12.330000 7053.825571
12.340000 7065.055017
12.350000 7076.271763
12.360000 7087.475776
12.370000 7098.667026
12.380000 7109.845481
12.390000 7121.011110
12.400000 7132.163884
12.410000 7143.303771
12.420000 7154.430741
12.430000 7165.544764
12.440000 7176.645811
12.450000 7187.733852
12.460000 7198.808857
12.470000 7209.870798
12.480000 7220.919646
12.490000 7231.955372
12.500000 7242.977947
12.510000 7253.987344
12.520000 7264.983534
12.530000 7275.966490
12.540000 7286.936184
12.550000 7297.892588
12.560000 7308.835676
12.570000 7319.765421
12.580000 7330.681796
12.590000 7341.584774
12.600000 7352.474329
12.610000 7363.350435
12.620000 7374.213066
12.630000 7385.062197
12.640000 7395.897802
12.650000 7406.719855
12.660000 7417.528333
12.670000 7428.323209
12.680000 7439.104460
12.690000 7449.872061
12.700000 7460.625988
12.710000 7471.366216
12.720000 7482.092722
12.730000 7492.805483
12.740000 7503.504474
12.750000 7514.189674
12.760000 7524.861058
12.770000 7535.518604
12.780000 7546.162290
12.790000 7556.792092
12.800000 7567.407989
12.810000 7578.009960
12.820000 7588.597981
12.830000 7599.172032
12.840000 7609.732090
12.850000 7620.278136
12.860000 7630.810147
12.870000 7641.328103
12.880000 7651.831984
12.890000 7662.321769
12.900000 7672.797437
12.910000 7683.258969
12.920000 7693.706344
12.930000 7704.139544
12.940000 7714.558548
12.950000 7724.963338
12.960000 7735.353894
12.970000 7745.730197
12.980000 7756.092229
12.990000 7766.439970
13.000000 7776.773403
13.010000 7787.092510
13.020000 7797.397272
13.030000 7807.687672
13.040000 7817.963692
13.050000 7828.225314
13.060000 7838.472522
13.070000 7848.705297
13.080000 7858.923625
13.090000 7869.127486
13.100000 7879.316866
13.110000 7889.491747
13.120000 7899.652114
13.130000 7909.797950
13.140000 7919.929240
13.150000 7930.045968
13.160000 7940.148118
13.170000 7950.235675
13.180000 7960.308624
13.190000 7970.366951
13.200000 7980.410639
13.210000 7990.439675
13.220000 8000.454044
13.230000 8010.453732
13.240000 8020.438725
13.250000 8030.409008
13.260000 8040.364568
13.270000 8050.305392
13.280000 8060.231465
13.290000 8070.142776
13.300000 8080.039309
13.310000 8089.921053
13.320000 8099.787995
13.330000 8109.640123
13.340000 8119.477422
13.350000 8129.299882
13.360000 8139.107491
13.370000 8148.900235
13.380000 8158.678104
13.390000 8168.441086
13.400000 8178.189169
13.410000 8187.922342
13.420000 8197.640594
13.430000 8207.343914
13.440000 8217.032290
13.450000 8226.705713
13.460000 8236.364171
13.470000 8246.007654
13.480000 8255.636152
13.490000 8265.249656
13.500000 8274.848154
13.510000 8284.431637
13.520000 8294.000096
13.530000 8303.553520
13.540000 8313.091902
13.550000 8322.615231
13.560000 8332.123498
13.570000 8341.616695
13.580000 8351.094812
13.590000 8360.557842
13.600000 8370.005776
13.610000 8379.438605
13.620000 8388.856321
13.630000 8398.258917
13.640000 8407.646384
13.650000 8417.018715
13.660000 8426.375902
13.670000 8435.717938
13.680000 8445.044815
13.690000 8454.356526
13.700000 8463.653065
13.710000 8472.934424
13.720000 8482.200596
13.730000 8491.451576
13.740000 8500.687356
13.750000 8509.907931
13.760000 8519.113293
13.770000 8528.303437
13.780000 8537.478358
13.790000 8546.638049
13.800000 8555.782505
13.810000 8564.911719
13.820000 8574.025688
13.830000 8583.124405
13.840000 8592.207866
13.850000 8601.276065
13.860000 8610.328998
13.870000 8619.366659
13.880000 8628.389046
13.890000 8637.396151
13.900000 8646.387973
13.910000 8655.364506
13.920000 8664.325746
13.930000 8673.271689
13.940000 8682.202333
13.950000 8691.117671
13.960000 8700.017703
13.970000 8708.902423
13.980000 8717.771828
13.990000 8726.625916
14.000000 8735.464683
14.010000 8744.288126
14.020000 8753.096243
14.030000 8761.889031
14.040000 8770.666487
14.050000 8779.428609
14.060000 8788.175394
14.070000 8796.906840
14.080000 8805.622945
14.090000 8814.323708
14.100000 8823.009125
14.110000 8831.679196
14.120000 8840.333919
14.130000 8848.973292
14.140000 8857.597315
14.150000 8866.205984
14.160000 8874.799301
14.170000 8883.377262
14.180000 8891.939868
14.190000 8900.487118
14.200000 8909.019011
14.210000 8917.535546
14.220000 8926.036722
14.230000 8934.522540
14.240000 8942.993000
14.250000 8951.448100
14.260000 8959.887841
14.270000 8968.312223
14.280000 8976.721246
14.290000 8985.114910
14.300000 8993.493216
14.310000 9001.856165
14.320000 9010.203756
14.330000 9018.535991
14.340000 9026.852870
14.350000 9035.154394
14.360000 9043.440564
14.370000 9051.711382
14.380000 9059.966848
14.390000 9068.206964
14.400000 9076.431731
14.410000 9084.641151
14.420000 9092.835225
14.430000 9101.013955
14.440000 9109.177343
14.450000 9117.325391
14.460000 9125.458101
14.470000 9133.575475
14.480000 9141.677515
14.490000 9149.764223
14.500000 9157.835602
14.510000 9165.891654
14.520000 9173.932383
14.530000 9181.957790
14.540000 9189.967878
14.550000 9197.962651
14.560000 9205.942111
14.570000 9213.906261
14.580000 9221.855105
14.590000 9229.788646
14.600000 9237.706887
14.610000 9245.609831
14.620000 9253.497482
14.630000 9261.369844
14.640000 9269.226920
14.650000 9277.068715
14.660000 9284.895232
14.670000 9292.706474
14.680000 9300.502447
14.690000 9308.283154
14.700000 9316.048600
14.710000 9323.798788
14.720000 9331.533724
14.730000 9339.253411
14.740000 9346.957855
14.750000 9354.647060
14.760000 9362.321030
14.770000 9369.979771
14.780000 9377.623288
14.790000 9385.251585
14.800000 9392.864668
14.810000 9400.462541
14.820000 9408.045211
14.830000 9415.612682
14.840000 9423.164959
14.850000 9430.702049
14.860000 9438.223957
14.870000 9445.730688
14.880000 9453.222249
14.890000 9460.698644
14.900000 9468.159881
14.910000 9475.605964
14.920000 9483.036901
14.930000 9490.452696
14.940000 9497.853357
14.950000 9505.238889
14.960000 9512.609299
14.970000 9519.964593
14.980000 9527.304779
14.990000 9534.629861
15.000000 9541.939848
15.010000 9549.234745
15.020000 9556.514561
15.030000 9563.779300
15.040000 9571.028971
15.050000 9578.263580
15.060000 9585.483135
15.070000 9592.687642
15.080000 9599.877110
15.090000 9607.051544
15.100000 9614.210953
15.110000 9621.355344
15.120000 9628.484725
15.130000 9635.599102
15.140000 9642.698484
15.150000 9649.782879
15.160000 9656.852294
15.170000 9663.906737
15.180000 9670.946215
15.190000 9677.970738
15.200000 9684.980313
15.210000 9691.974948
15.220000 9698.954651
15.230000 9705.919430
15.240000 9712.869295
15.250000 9719.804252
15.260000 9726.724312
15.270000 9733.629481
15.280000 9740.519769
15.290000 9747.395184
15.300000 9754.255735
15.310000 9761.101431
15.320000 9767.932281
15.330000 9774.748293
15.340000 9781.549476
15.350000 9788.335840
15.360000 9795.107392
15.370000 9801.864144
15.380000 9808.606103
15.390000 9815.333279
15.400000 9822.045681
15.410000 9828.743318
15.420000 9835.426200
15.430000 9842.094337
15.440000 9848.747738
15.450000 9855.386412
15.460000 9862.010369
15.470000 9868.619618
15.480000 9875.214171
15.490000 9881.794035
15.500000 9888.359222
15.510000 9894.909740
15.520000 9901.445601
15.530000 9907.966814
15.540000 9914.473388
15.550000 9920.965335
15.560000 9927.442664
15.570000 9933.905386
15.580000 9940.353511
15.590000 9946.787048
15.600000 9953.206009
15.610000 9959.610405
15.620000 9966.000244
15.630000 9972.375539
15.640000 9978.736299
15.650000 9985.082535
15.660000 9991.414258
15.670000 9997.731479
15.680000 10004.034208
15.690000 10010.322457
15.700000 10016.596235
15.710000 10022.855554
15.720000 10029.100425
15.730000 10035.330859
15.740000 10041.546868
15.750000 10047.748461
15.760000 10053.935650
15.770000 10060.108448
15.780000 10066.266863
15.790000 10072.410909
15.800000 10078.540596
15.810000 10084.655936
15.820000 10090.756940
15.830000 10096.843619
15.840000 10102.915986
15.850000 10108.974051
15.860000 10115.017827
15.870000 10121.047324
15.880000 10127.062555
15.890000 10133.063531
15.900000 10139.050265
15.910000 10145.022767
15.920000 10150.981050
15.930000 10156.925126
15.940000 10162.855006
15.950000 10168.770703
15.960000 10174.672228
15.970000 10180.559593
15.980000 10186.432812
15.990000 10192.291895
16.000000 10198.136855
16.010000 10203.967704
16.020000 10209.784455
16.030000 10215.587119
16.040000 10221.375710
16.050000 10227.150238
16.060000 10232.910718
16.070000 10238.657160
16.080000 10244.389579
16.090000 10250.107985
16.100000 10255.812392
16.110000 10261.502812
16.120000 10267.179258
16.130000 10272.841743
16.140000 10278.490279
16.150000 10284.124879
16.160000 10289.745555
16.170000 10295.352321
16.180000 10300.945189
16.190000 10306.524172
16.200000 10312.089283
16.210000 10317.640535
16.220000 10323.177941
16.230000 10328.701513
16.240000 10334.211266
16.250000 10339.707211
16.260000 10345.189362
16.270000 10350.657732
16.280000 10356.112335
16.290000 10361.553182
16.300000 10366.980289
16.310000 10372.393667
16.320000 10377.793330
16.330000 10383.179292
16.340000 10388.551565
16.350000 10393.910163
16.360000 10399.255099
16.370000 10404.586388
16.380000 10409.904041
16.390000 10415.208073
16.400000 10420.498498
16.410000 10425.775328
16.420000 10431.038577
16.430000 10436.288259
16.440000 10441.524388
16.450000 10446.746976
16.460000 10451.956038
16.470000 10457.151588
16.480000 10462.333639
16.490000 10467.502204
16.500000 10472.657298
16.510000 10477.798935
16.520000 10482.927127
16.530000 10488.041890
16.540000 10493.143236
16.550000 10498.231180
16.560000 10503.305736
16.570000 10508.366918
16.580000 10513.414739
16.590000 10518.449213
16.600000 10523.470355
16.610000 10528.478179
16.620000 10533.472698
16.630000 10538.453927
16.640000 10543.421879
16.650000 10548.376570
16.660000 10553.318012
16.670000 10558.246221
16.680000 10563.161210
16.690000 10568.062993
16.700000 10572.951585
16.710000 10577.827001
16.720000 10582.689253
16.730000 10587.538358
16.740000 10592.374328
16.750000 10597.197178
16.760000 10602.006923
16.770000 10606.803576
16.780000 10611.587153
16.790000 10616.357668
16.800000 10621.115135
16.810000 10625.859569
16.820000 10630.590983
16.830000 10635.309393
16.840000 10640.014813
16.850000 10644.707258
16.860000 10649.386742
16.870000 10654.053279
16.880000 10658.706884
16.890000 10663.347573
16.900000 10667.975358
16.910000 10672.590256
16.920000 10677.192280
16.930000 10681.781446
16.940000 10686.357767
16.950000 10690.921259
16.960000 10695.471937
16.970000 10700.009814
16.980000 10704.534907
16.990000 10709.047229
17.000000 10713.546795
17.010000 10718.033620
17.020000 10722.507719
17.030000 10726.969107
17.040000 10731.417798
17.050000 10735.853808
17.060000 10740.277151
17.070000 10744.687842
17.080000 10749.085896
17.090000 10753.471328
17.100000 10757.844152
17.110000 10762.204384
17.120000 10766.552039
17.130000 10770.887131
17.140000 10775.209676
17.150000 10779.519688
17.160000 10783.817183
17.170000 10788.102175
17.180000 10792.374679
17.190000 10796.634711
17.200000 10800.882285
17.210000 10805.117417
17.220000 10809.340121
17.230000 10813.550413
17.240000 10817.748308
17.250000 10821.933820
17.260000 10826.106966
17.270000 10830.267759
17.280000 10834.416215
17.290000 10838.552350
17.300000 10842.676178
17.310000 10846.787714
17.320000 10850.886974
17.330000 10854.973973
17.340000 10859.048726
17.350000 10863.111248
17.360000 10867.161554
17.370000 10871.199660
17.380000 10875.225581
17.390000 10879.239331
17.400000 10883.240927
17.410000 10887.230383
17.420000 10891.207715
17.430000 10895.172938
17.440000 10899.126067
17.450000 10903.067117
17.460000 10906.996104
17.470000 10910.913043
17.480000 10914.817950
17.490000 10918.710839
17.500000 10922.591725
17.510000 10926.460625
17.520000 10930.317554
17.530000 10934.162526
17.540000 10937.995557
17.550000 10941.816663
17.560000 10945.625858
17.570000 10949.423159
17.580000 10953.208580
17.590000 10956.982137
17.600000 10960.743845
17.610000 10964.493719
17.620000 10968.231776
17.630000 10971.958030
17.640000 10975.672496
17.650000 10979.375191
17.660000 10983.066129
17.670000 10986.745325
17.680000 10990.412796
17.690000 10994.068557
17.700000 10997.712623
17.710000 11001.345009
17.720000 11004.965731
17.730000 11008.574804
17.740000 11012.172244
17.750000 11015.758066
17.760000 11019.332286
17.770000 11022.894918
17.780000 11026.445979
17.790000 11029.985484
17.800000 11033.513448
17.810000 11037.029886
17.820000 11040.534815
17.830000 11044.028250
17.840000 11047.510205
17.850000 11050.980697
17.860000 11054.439741
17.870000 11057.887352
17.880000 11061.323547
17.890000 11064.748339
17.900000 11068.161745
17.910000 11071.563781
17.920000 11074.954461
17.930000 11078.333801
17.940000 11081.701817
17.950000 11085.058524
17.960000 11088.403937
17.970000 11091.738073
17.980000 11095.060946
17.990000 11098.372571
18.000000 11101.672966
18.010000 11104.962144
18.020000 11108.240121
18.030000 11111.506913
18.040000 11114.762536
18.050000 11118.007004
18.060000 11121.240333
18.070000 11124.462539
18.080000 11127.673637
18.090000 11130.873643
18.100000 11134.062571
18.110000 11137.240438
18.120000 11140.407260
18.130000 11143.563050
18.140000 11146.707825
18.150000 11149.841601
18.160000 11152.964393
18.170000 11156.076216
18.180000 11159.177085
18.190000 11162.267017
18.200000 11165.346026
18.210000 11168.414128
18.220000 11171.471339
18.230000 11174.517673
18.240000 11177.553147
18.250000 11180.577776
18.260000 11183.591575
18.270000 11186.594560
18.280000 11189.586746
18.290000 11192.568148
18.300000 11195.538782
18.310000 11198.498664
18.320000 11201.447809
18.330000 11204.386231
18.340000 11207.313948
18.350000 11210.230973
18.360000 11213.137323
18.370000 11216.033012
18.380000 11218.918057
18.390000 11221.792473
18.400000 11224.656274
18.410000 11227.509477
18.420000 11230.352097
18.430000 11233.184149
18.440000 11236.005648
18.450000 11238.816610
18.460000 11241.617051
18.470000 11244.406985
18.480000 11247.186429
18.490000 11249.955396
18.500000 11252.713904
18.510000 11255.461966
18.520000 11258.199599
18.530000 11260.926817
18.540000 11263.643637
18.550000 11266.350073
18.560000 11269.046141
18.570000 11271.731855
18.580000 11274.407232
18.590000 11277.072287
18.600000 11279.727034
18.610000 11282.371490
18.620000 11285.005669
18.630000 11287.629587
18.640000 11290.243259
18.650000 11292.846701
18.660000 11295.439927
18.670000 11298.022953
18.680000 11300.595793
18.690000 11303.158465
18.700000 11305.710981
18.710000 11308.253359
18.720000 11310.785613
18.730000 11313.307758
18.740000 11315.819809
18.750000 11318.321782
18.760000 11320.813692
18.770000 11323.295554
18.780000 11325.767383
18.790000 11328.229195
18.800000 11330.681004
18.810000 11333.122826
18.820000 11335.554676
18.830000 11337.976569
18.840000 11340.388520
18.850000 11342.790545
18.860000 11345.182658
18.870000 11347.564874
18.880000 11349.937210
18.890000 11352.299679
18.900000 11354.652297
18.910000 11356.995079
18.920000 11359.328040
18.930000 11361.651195
18.940000 11363.964560
18.950000 11366.268149
18.960000 11368.561977
18.970000 11370.846060
18.980000 11373.120412
18.990000 11375.385048
19.000000 11377.639984
19.010000 11379.885234
19.020000 11382.120814
19.030000 11384.346738
19.040000 11386.563022
19.050000 11388.769680
19.060000 11390.966727
19.070000 11393.154179
19.080000 11395.332050
19.090000 11397.500356
19.100000 11399.659110
19.110000 11401.808329
19.120000 11403.948026
19.130000 11406.078218
19.140000 11408.198918
19.150000 11410.310142
19.160000 11412.411904
19.170000 11414.504220
19.180000 11416.587105
19.190000 11418.660572
19.200000 11420.724637
19.210000 11422.779315
19.220000 11424.824621
19.230000 11426.860569
19.240000 11428.887174
19.250000 11430.904451
19.260000 11432.912416
19.270000 11434.911081
19.280000 11436.900463
19.290000 11438.880576
19.300000 11440.851435
19.310000 11442.813054
19.320000 11444.765449
19.330000 11446.708634
19.340000 11448.642623
19.350000 11450.567432
19.360000 11452.483074
19.370000 11454.389566
19.380000 11456.286920
19.390000 11458.175153
19.400000 11460.054279
19.410000 11461.924311
19.420000 11463.785266
19.430000 11465.637157
19.440000 11467.479999
19.450000 11469.313807
19.460000 11471.138595
19.470000 11472.954378
19.480000 11474.761170
19.490000 11476.558986
19.500000 11478.347841
19.510000 11480.127748
19.520000 11481.898723
19.530000 11483.660780
19.540000 11485.413933
19.550000 11487.158198
19.560000 11488.893587
19.570000 11490.620117
19.580000 11492.337801
19.590000 11494.046653
19.600000 11495.746688
19.610000 11497.437921
19.620000 11499.120366
19.630000 11500.794038
19.640000 11502.458950
19.650000 11504.115116
19.660000 11505.762553
19.670000 11507.401273
19.680000 11509.031291
19.690000 11510.652621
19.700000 11512.265278
19.710000 11513.869276
19.720000 11515.464629
19.730000 11517.051352
19.740000 11518.629458
19.750000 11520.198962
19.760000 11521.759879
19.770000 11523.312222
19.780000 11524.856005
19.790000 11526.391244
19.800000 11527.917951
19.810000 11529.436142
19.820000 11530.945829
19.830000 11532.447029
19.840000 11533.939753
19.850000 11535.424018
19.860000 11536.899836
19.870000 11538.367223
19.880000 11539.826191
19.890000 11541.276755
19.900000 11542.718930
19.910000 11544.152728
19.920000 11545.578165
19.930000 11546.995254
19.940000 11548.404009
19.950000 11549.804445
19.960000 11551.196575
19.970000 11552.580412
19.980000 11553.955972
19.990000 11555.323268
20.000000 11556.682314
20.010000 11558.033124
20.020000 11559.375712
20.030000 11560.710091
20.040000 11562.036276
20.050000 11563.354281
20.060000 11564.664119
20.070000 11565.965804
20.080000 11567.259349
20.090000 11568.544770
20.100000 11569.822079
20.110000 11571.091291
20.120000 11572.352419
20.130000 11573.605476
20.140000 11574.850478
20.150000 11576.087436
20.160000 11577.316366
20.170000 11578.537281
20.180000 11579.750194
20.190000 11580.955119
20.200000 11582.152070
20.210000 11583.341061
20.220000 11584.522105
20.230000 11585.695216
20.240000 11586.860407
20.250000 11588.017692
20.260000 11589.167084
20.270000 11590.308598
20.280000 11591.442247
20.290000 11592.568043
20.300000 11593.686002
20.310000 11594.796136
20.320000 11595.898458
20.330000 11596.992983
20.340000 11598.079724
20.350000 11599.158694
20.360000 11600.229907
20.370000 11601.293376
20.380000 11602.349114
20.390000 11603.397136
20.400000 11604.437454
20.410000 11605.470081
20.420000 11606.495032
20.430000 11607.512319
20.440000 11608.521956
20.450000 11609.523956
20.460000 11610.518333
20.470000 11611.505099
20.480000 11612.484269
20.490000 11613.455854
20.500000 11614.419870
20.510000 11615.376328
20.520000 11616.325242
20.530000 11617.266625
20.540000 11618.200491
20.550000 11619.126853
20.560000 11620.045723
20.570000 11620.957115
20.580000 11621.861043
20.590000 11622.757518
20.600000 11623.646556
20.610000 11624.528167
20.620000 11625.402366
20.630000 11626.269166
20.640000 11627.128579
20.650000 11627.980619
20.660000 11628.825299
20.670000 11629.662632
20.680000 11630.492630
20.690000 11631.315307
20.700000 11632.130676
20.710000 11632.938750
20.720000 11633.739541
20.730000 11634.533063
20.740000 11635.319328
20.750000 11636.098350
20.760000 11636.870141
20.770000 11637.634714
20.780000 11638.392082
20.790000 11639.142258
20.800000 11639.885255
20.810000 11640.621085
20.820000 11641.349761
20.830000 11642.071297
20.840000 11642.785704
20.850000 11643.492996
20.860000 11644.193186
20.870000 11644.886285
20.880000 11645.572307
20.890000 11646.251265
20.900000 11646.923171
20.910000 11647.588038
20.920000 11648.245878
20.930000 11648.896704
20.940000 11649.540530
20.950000 11650.177366
20.960000 11650.807227
20.970000 11651.430124
20.980000 11652.046070
20.990000 11652.655078
21.000000 11653.257160
21.010000 11653.852329
21.020000 11654.440597
21.030000 11655.021977
21.040000 11655.596481
21.050000 11656.164122
21.060000 11656.724912
21.070000 11657.278864
21.080000 11657.825989
21.090000 11658.366301
21.100000 11658.899812
21.110000 11659.426534
21.120000 11659.946479
21.130000 11660.459661
21.140000 11660.966090
21.150000 11661.465780
21.160000 11661.958743
21.170000 11662.444991
21.180000 11662.924537
21.190000 11663.397392
21.200000 11663.863569
21.210000 11664.323080
21.220000 11664.775937
21.230000 11665.222153
21.240000 11665.661740
21.250000 11666.094709
21.260000 11666.521074
21.270000 11666.940846
21.280000 11667.354037
21.290000 11667.760659
21.300000 11668.160726
21.310000 11668.554247
21.320000 11668.941237
21.330000 11669.321706
21.340000 11669.695666
21.350000 11670.063131
21.360000 11670.424111
21.370000 11670.778619
21.380000 11671.126667
21.390000 11671.468267
21.400000 11671.803430
21.410000 11672.132169
21.420000 11672.454495
21.430000 11672.770421
21.440000 11673.079957
21.450000 11673.383118
21.460000 11673.679913
21.470000 11673.970355
21.480000 11674.254455
21.490000 11674.532226
21.500000 11674.803680
21.510000 11675.068827
21.520000 11675.327681
21.530000 11675.580252
21.540000 11675.826552
21.550000 11676.066593
21.560000 11676.300388
21.570000 11676.527946
21.580000 11676.749281
21.590000 11676.964403
21.600000 11677.173325
21.610000 11677.376058
21.620000 11677.572614
21.630000 11677.763004
21.640000 11677.947240
21.650000 11678.125333
21.660000 11678.297296
21.670000 11678.463139
21.680000 11678.622874
21.690000 11678.776513
21.700000 11678.924066
21.710000 11679.065547
21.720000 11679.200965
21.730000 11679.330333
21.740000 11679.453662
21.750000 11679.570963
21.760000 11679.682248
21.770000 11679.787529
21.780000 11679.886815
21.790000 11679.980120
21.800000 11680.067454
21.810000 11680.148829
21.820000 11680.224255
21.830000 11680.293745
21.840000 11680.357309
21.850000 11680.414959
21.860000 11680.466706
21.870000 11680.512562
21.880000 11680.552537
21.890000 11680.586642
21.900000 11680.614890
21.910000 11680.637291
21.920000 11680.653856
21.930000 11680.664596
21.940000 11680.669524
21.950000 11680.668648
21.960000 11680.661982
21.970000 11680.649536
21.980000 11680.631320
21.990000 11680.607347
22.000000 11680.577627
22.010000 11680.542171
22.020000 11680.500990
22.030000 11680.454096
22.040000 11680.401498
22.050000 11680.343209
22.060000 11680.279239
22.070000 11680.209599
22.080000 11680.134300
22.090000 11680.053353
22.100000 11679.966768
22.110000 11679.874558
22.120000 11679.776732
22.130000 11679.673301
22.140000 11679.564277
22.150000 11679.449670
22.160000 11679.329491
22.170000 11679.203750
22.180000 11679.072459
22.190000 11678.935628
22.200000 11678.793269
22.210000 11678.645391
22.220000 11678.492006
22.230000 11678.333124
22.240000 11678.168755
22.250000 11677.998912
22.260000 11677.823603
22.270000 11677.642841
22.280000 11677.456635
22.290000 11677.264996
22.300000 11677.067935
22.310000 11676.865463
22.320000 11676.657589
22.330000 11676.444325
22.340000 11676.225681
22.350000 11676.001667
22.360000 11675.772295
22.370000 11675.537574
22.380000 11675.297516
22.390000 11675.052129
22.400000 11674.801426
22.410000 11674.545417
22.420000 11674.284111
22.430000 11674.017520
22.440000 11673.745653
22.450000 11673.468522
22.460000 11673.186136
22.470000 11672.898506
22.480000 11672.605642
22.490000 11672.307554
22.500000 11672.004254
22.510000 11671.695750
22.520000 11671.382054
22.530000 11671.063176
22.540000 11670.739125
22.550000 11670.409913
22.560000 11670.075549
22.570000 11669.736044
22.580000 11669.391408
22.590000 11669.041650
22.600000 11668.686782
22.610000 11668.326813
22.620000 11667.961754
22.630000 11667.591614
22.640000 11667.216404
22.650000 11666.836134
22.660000 11666.450813
22.670000 11666.060452
22.680000 11665.665062
22.690000 11665.264651
22.700000 11664.859231
22.710000 11664.448810
22.720000 11664.033400
22.730000 11663.613010
22.740000 11663.187649
22.750000 11662.757329
22.760000 11662.322059
22.770000 11661.881848
22.780000 11661.436707
22.790000 11660.986646
22.800000 11660.531674
22.810000 11660.071801
22.820000 11659.607038
22.830000 11659.137394
22.840000 11658.662878
22.850000 11658.183501
22.860000 11657.699273
22.870000 11657.210203
22.880000 11656.716301
22.890000 11656.217577
22.900000 11655.714040
22.910000 11655.205701
22.920000 11654.692568
22.930000 11654.174652
22.940000 11653.651962
22.950000 11653.124508
22.960000 11652.592300
22.970000 11652.055347
22.980000 11651.513659
22.990000 11650.967246
23.000000 11650.416116
23.010000 11649.860281
23.020000 11649.299748
23.030000 11648.734528
23.040000 11648.164631
23.050000 11647.590065
23.060000 11647.010841
23.070000 11646.426967
23.080000 11645.838454
23.090000 11645.245311
23.100000 11644.647546
23.110000 11644.045171
23.120000 11643.438193
23.130000 11642.826624
23.140000 11642.210471
23.150000 11641.589744
23.160000 11640.964453
23.170000 11640.334607
23.180000 11639.700215
23.190000 11639.061287
23.200000 11638.417832
23.210000 11637.769859
23.220000 11637.117378
23.230000 11636.460398
23.240000 11635.798928
23.250000 11635.132977
23.260000 11634.462555
23.270000 11633.787670
23.280000 11633.108333
23.290000 11632.424551
23.300000 11631.736335
23.310000 11631.043694
23.320000 11630.346636
23.330000 11629.645171
23.340000 11628.939308
23.350000 11628.229056
23.360000 11627.514424
23.370000 11626.795421
23.380000 11626.072057
23.390000 11625.344339
23.400000 11624.612278
23.410000 11623.875883
23.420000 11623.135162
23.430000 11622.390124
23.440000 11621.640778
23.450000 11620.887134
23.460000 11620.129200
23.470000 11619.366986
23.480000 11618.600499
23.490000 11617.829749
23.500000 11617.054746
23.510000 11616.275497
23.520000 11615.492012
23.530000 11614.704299
23.540000 11613.912368
23.550000 11613.116227
23.560000 11612.315885
23.570000 11611.511351
23.580000 11610.702634
23.590000 11609.889742
23.600000 11609.072684
23.610000 11608.251469
23.620000 11607.426106
23.630000 11606.596603
23.640000 11605.762969
23.650000 11604.925213
23.660000 11604.083344
23.670000 11603.237370
23.680000 11602.387299
23.690000 11601.533141
23.700000 11600.674904
23.710000 11599.812597
23.720000 11598.946228
23.730000 11598.075806
23.740000 11597.201339
23.750000 11596.322837
23.760000 11595.440307
23.770000 11594.553758
23.780000 11593.663199
23.790000 11592.768638
23.800000 11591.870083
23.810000 11590.967544
23.820000 11590.061028
23.830000 11589.150544
23.840000 11588.236101
23.850000 11587.317707
23.860000 11586.395370
23.870000 11585.469099
23.880000 11584.538902
23.890000 11583.604787
23.900000 11582.666764
23.910000 11581.724839
23.920000 11580.779022
23.930000 11579.829321
23.940000 11578.875744
23.950000 11577.918300
23.960000 11576.956997
23.970000 11575.991842
23.980000 11575.022845
23.990000 11574.050014
24.000000 11573.073356
24.010000 11572.092880
24.020000 11571.108595
24.030000 11570.120508
24.040000 11569.128628
24.050000 11568.132962
24.060000 11567.133519
24.070000 11566.130308
24.080000 11565.123335
24.090000 11564.112610
24.100000 11563.098141
24.110000 11562.079935
24.120000 11561.058000
24.130000 11560.032345
24.140000 11559.002978
24.150000 11557.969907
24.160000 11556.933139
24.170000 11555.892684
24.180000 11554.848548
24.190000 11553.800740
24.200000 11552.749267
24.210000 11551.694139
24.220000 11550.635362
24.230000 11549.572945
24.240000 11548.506895
24.250000 11547.437221
24.260000 11546.363930
24.270000 11545.287031
24.280000 11544.206530
24.290000 11543.122437
24.300000 11542.034759
24.310000 11540.943503
24.320000 11539.848678
24.330000 11538.750291
24.340000 11537.648350
24.350000 11536.542863
24.360000 11535.433838
24.370000 11534.321282
24.380000 11533.205204
24.390000 11532.085610
24.400000 11530.962509
24.410000 11529.835909
24.420000 11528.705816
24.430000 11527.572240
24.440000 11526.435187
24.450000 11525.294665
24.460000 11524.150682
24.470000 11523.003245
24.480000 11521.852362
24.490000 11520.698041
24.500000 11519.540289
24.510000 11518.379114
24.520000 11517.214523
24.530000 11516.046525
24.540000 11514.875126
24.550000 11513.700334
24.560000 11512.522156
24.570000 11511.340601
24.580000 11510.155676
24.590000 11508.967387
24.600000 11507.775743
24.610000 11506.580751
24.620000 11505.382419
24.630000 11504.180754
24.640000 11502.975763
24.650000 11501.767454
24.660000 11500.555834
24.670000 11499.340911
24.680000 11498.122692
24.690000 11496.901184
24.700000 11495.676395
24.710000 11494.448332
24.720000 11493.217002
24.730000 11491.982413
24.740000 11490.744573
24.750000 11489.503487
24.760000 11488.259164
24.770000 11487.011612
24.780000 11485.760836
24.790000 11484.506845
24.800000 11483.249645
24.810000 11481.989244
24.820000 11480.725650
24.830000 11479.458868
24.840000 11478.188908
24.850000 11476.915775
24.860000 11475.639476
24.870000 11474.360020
24.880000 11473.077413
24.890000 11471.791662
24.900000 11470.502775
24.910000 11469.210758
24.920000 11467.915619
24.930000 11466.617365
24.940000 11465.316002
24.950000 11464.011538
24.960000 11462.703980
24.970000 11461.393335
24.980000 11460.079610
24.990000 11458.762812
25.000000 11457.442948
25.010000 11456.120025
25.020000 11454.794050
25.030000 11453.465030
25.040000 11452.132972
25.050000 11450.797882
25.060000 11449.459769
25.070000 11448.118638
25.080000 11446.774496
25.090000 11445.427351
25.100000 11444.077210
25.110000 11442.724079
25.120000 11441.367965
25.130000 11440.008875
25.140000 11438.646816
25.150000 11437.281794
25.160000 11435.913817
25.170000 11434.542892
25.180000 11433.169024
25.190000 11431.792222
25.200000 11430.412491
25.210000 11429.029838
25.220000 11427.644271
25.230000 11426.255795
25.240000 11424.864419
25.250000 11423.470147
25.260000 11422.072988
25.270000 11420.672947
25.280000 11419.270032
25.290000 11417.864250
25.300000 11416.455606
25.310000 11415.044107
25.320000 11413.629761
25.330000 11412.212573
25.340000 11410.792551
25.350000 11409.369700
25.360000 11407.944028
25.370000 11406.515542
25.380000 11405.084247
25.390000 11403.650150
25.400000 11402.213258
25.410000 11400.773578
25.420000 11399.331115
25.430000 11397.885877
25.440000 11396.437870
25.450000 11394.987100
25.460000 11393.533574
25.470000 11392.077299
25.480000 11390.618280
25.490000 11389.156525
25.500000 11387.692040
25.510000 11386.224831
25.520000 11384.754904
25.530000 11383.282266
25.540000 11381.806924
25.550000 11380.328884
25.560000 11378.848152
25.570000 11377.364734
25.580000 11375.878637
25.590000 11374.389868
25.600000 11372.898432
25.610000 11371.404336
25.620000 11369.907587
25.630000 11368.408189
25.640000 11366.906151
25.650000 11365.401478
25.660000 11363.894176
25.670000 11362.384252
25.680000 11360.871712
25.690000 11359.356562
25.700000 11357.838808
25.710000 11356.318457
25.720000 11354.795514
25.730000 11353.269987
25.740000 11351.741881
25.750000 11350.211202
25.760000 11348.677957
25.770000 11347.142151
25.780000 11345.603791
25.790000 11344.062883
25.800000 11342.519433
25.810000 11340.973448
25.820000 11339.424932
25.830000 11337.873893
25.840000 11336.320337
25.850000 11334.764269
25.860000 11333.205695
25.870000 11331.644623
25.880000 11330.081057
25.890000 11328.515003
25.900000 11326.946469
25.910000 11325.375459
25.920000 11323.801979
25.930000 11322.226037
25.940000 11320.647637
25.950000 11319.066786
25.960000 11317.483490
25.970000 11315.897754
25.980000 11314.309585
25.990000 11312.718988
26.000000 11311.125969
26.010000 11309.530535
26.020000 11307.932691
26.030000 11306.332443
26.040000 11304.729797
26.050000 11303.124758
26.060000 11301.517334
26.070000 11299.907529
26.080000 11298.295349
26.090000 11296.680800
26.100000 11295.063888
26.110000 11293.444619
26.120000 11291.822999
26.130000 11290.199033
26.140000 11288.572727
26.150000 11286.944087
26.160000 11285.313119
26.170000 11283.679828
26.180000 11282.044221
26.190000 11280.406302
26.200000 11278.766077
26.210000 11277.123554
26.220000 11275.478736
26.230000 11273.831629
26.240000 11272.182240
26.250000 11270.530574
26.260000 11268.876637
26.270000 11267.220434
26.280000 11265.561971
26.290000 11263.901254
26.300000 11262.238288
26.310000 11260.573079
26.320000 11258.905632
26.330000 11257.235953
26.340000 11255.564048
26.350000 11253.889921
26.360000 11252.213580
26.370000 11250.535029
26.380000 11248.854274
26.390000 11247.171320
26.400000 11245.486172
26.410000 11243.798838
26.420000 11242.109321
26.430000 11240.417627
26.440000 11238.723763
26.450000 11237.027732
26.460000 11235.329542
26.470000 11233.629196
26.480000 11231.926702
26.490000 11230.222063
26.500000 11228.515286
26.510000 11226.806376
26.520000 11225.095339
26.530000 11223.382179
26.540000 11221.666902
26.550000 11219.949514
26.560000 11218.230020
26.570000 11216.508425
26.580000 11214.784734
26.590000 11213.058954
26.600000 11211.331089
26.610000 11209.601144
26.620000 11207.869126
26.630000 11206.135038
26.640000 11204.398888
26.650000 11202.660678
26.660000 11200.920417
26.670000 11199.178107
26.680000 11197.433755
26.690000 11195.687366
26.700000 11193.938945
26.710000 11192.188497
26.720000 11190.436028
26.730000 11188.681543
26.740000 11186.925046
26.750000 11185.166544
26.760000 11183.406041
26.770000 11181.643543
26.780000 11179.879054
26.790000 11178.112580
26.800000 11176.344126
26.810000 11174.573697
26.820000 11172.801299
26.830000 11171.026936
26.840000 11169.250613
26.850000 11167.472336
26.860000 11165.692109
26.870000 11163.909939
26.880000 11162.125829
26.890000 11160.339785
26.900000 11158.551812
26.910000 11156.761915
26.920000 11154.970099
26.930000 11153.176369
26.940000 11151.380731
26.950000 11149.583188
26.960000 11147.783747
26.970000 11145.982411
26.980000 11144.179187
26.990000 11142.374079
27.000000 11140.567092
27.010000 11138.758231
27.020000 11136.947501
27.030000 11135.134906
27.040000 11133.320453
27.050000 11131.504145
27.060000 11129.685988
27.070000 11127.865987
27.080000 11126.044146
27.090000 11124.220471
27.100000 11122.394965
27.110000 11120.567635
27.120000 11118.738485
27.130000 11116.907520
27.140000 11115.074744
27.150000 11113.240163
27.160000 11111.403781
27.170000 11109.565604
27.180000 11107.725635
27.190000 11105.883881
27.200000 11104.040345
27.210000 11102.195032
27.220000 11100.347947
27.230000 11098.499096
27.240000 11096.648482
27.250000 11094.796110
27.260000 11092.941986
27.270000 11091.086113
27.280000 11089.228498
27.290000 11087.369143
27.300000 11085.508055
27.310000 11083.645237
27.320000 11081.780695
27.330000 11079.914434
27.340000 11078.046456
27.350000 11076.176769
27.360000 11074.305376
27.370000 11072.432281
27.380000 11070.557490
27.390000 11068.681007
27.400000 11066.802836
27.410000 11064.922984
27.420000 11063.041452
27.430000 11061.158248
27.440000 11059.273375
27.450000 11057.386837
27.460000 11055.498640
27.470000 11053.608787
27.480000 11051.717284
27.490000 11049.824135
27.500000 11047.929345
27.510000 11046.032918
27.520000 11044.134858
27.530000 11042.235170
27.540000 11040.333859
27.550000 11038.430929
27.560000 11036.526385
27.570000 11034.620231
27.580000 11032.712471
27.590000 11030.803111
27.600000 11028.892154
27.610000 11026.979605
27.620000 11025.065468
27.630000 11023.149749
27.640000 11021.232450
27.650000 11019.313578
27.660000 11017.393135
27.670000 11015.471127
27.680000 11013.547558
27.690000 11011.622432
27.700000 11009.695754
27.710000 11007.767529
27.720000 11005.837759
27.730000 11003.906451
27.740000 11001.973607
27.750000 11000.039233
27.760000 10998.103333
27.770000 10996.165912
27.780000 10994.226972
27.790000 10992.286520
27.800000 10990.344558
27.810000 10988.401092
27.820000 10986.456126
27.830000 10984.509664
27.840000 10982.561710
27.850000 10980.612268
27.860000 10978.661344
27.870000 10976.708940
27.880000 10974.755062
27.890000 10972.799713
27.900000 10970.842898
27.910000 10968.884621
27.920000 10966.924886
27.930000 10964.963697
27.940000 10963.001059
27.950000 10961.036976
27.960000 10959.071452
27.970000 10957.104490
27.980000 10955.136096
27.990000 10953.166274
28.000000 10951.195027
28.010000 10949.222360
28.020000 10947.248277
28.030000 10945.272782
28.040000 10943.295879
28.050000 10941.317572
28.060000 10939.337865
28.070000 10937.356763
28.080000 10935.374270
28.090000 10933.390389
28.100000 10931.405124
28.110000 10929.418481
28.120000 10927.430462
28.130000 10925.441072
28.140000 10923.450316
28.150000 10921.458196
28.160000 10919.464717
28.170000 10917.469883
28.180000 10915.473698
28.190000 10913.476166
28.200000 10911.477292
28.210000 10909.477078
28.220000 10907.475529
28.230000 10905.472650
28.240000 10903.468443
28.250000 10901.462913
28.260000 10899.456064
28.270000 10897.447900
28.280000 10895.438425
28.290000 10893.427643
28.300000 10891.415557
28.310000 10889.402172
28.320000 10887.387491
28.330000 10885.371519
28.340000 10883.354259
28.350000 10881.335715
28.360000 10879.315892
28.370000 10877.294792
28.380000 10875.272420
28.390000 10873.248780
28.400000 10871.223876
28.410000 10869.197711
28.420000 10867.170289
28.430000 10865.141614
28.440000 10863.111690
28.450000 10861.080521
28.460000 10859.048111
28.470000 10857.014462
28.480000 10854.979580
28.490000 10852.943468
28.500000 10850.906130
28.510000 10848.867570
28.520000 10846.827790
28.530000 10844.786796
28.540000 10842.744590
28.550000 10840.701178
28.560000 10838.656561
28.570000 10836.610745
28.580000 10834.563732
28.590000 10832.515527
28.600000 10830.466133
28.610000 10828.415554
28.620000 10826.363794
28.630000 10824.310856
28.640000 10822.256744
28.650000 10820.201462
28.660000 10818.145013
28.670000 10816.087402
28.680000 10814.028631
28.690000 10811.968705
28.700000 10809.907626
28.710000 10807.845400
28.720000 10805.782028
28.730000 10803.717516
28.740000 10801.651866
28.750000 10799.585083
28.760000 10797.517169
28.770000 10795.448129
28.780000 10793.377965
28.790000 10791.306682
28.800000 10789.234284
28.810000 10787.160773
28.820000 10785.086154
28.830000 10783.010429
28.840000 10780.933603
28.850000 10778.855679
28.860000 10776.776660
28.870000 10774.696551
28.880000 10772.615354
28.890000 10770.533073
28.900000 10768.449712
28.910000 10766.365274
28.920000 10764.279763
28.930000 10762.193182
28.940000 10760.105534
28.950000 10758.016824
28.960000 10755.927054
28.970000 10753.836229
28.980000 10751.744351
28.990000 10749.651424
29.000000 10747.557451
29.010000 10745.462436
29.020000 10743.366383
29.030000 10741.269294
29.040000 10739.171174
29.050000 10737.072025
29.060000 10734.971851
29.070000 10732.870656
29.080000 10730.768443
29.090000 10728.665214
29.100000 10726.560975
29.110000 10724.455727
29.120000 10722.349475
29.130000 10720.242221
29.140000 10718.133970
29.150000 10716.024724
29.160000 10713.914487
29.170000 10711.803262
29.180000 10709.691053
29.190000 10707.577862
29.200000 10705.463694
29.210000 10703.348551
29.220000 10701.232436
29.230000 10699.115354
29.240000 10696.997307
29.250000 10694.878299
29.260000 10692.758333
29.270000 10690.637413
29.280000 10688.515540
29.290000 10686.392720
29.300000 10684.268954
29.310000 10682.144247
29.320000 10680.018602
29.330000 10677.892021
29.340000 10675.764508
29.350000 10673.636067
29.360000 10671.506700
29.370000 10669.376411
29.380000 10667.245202
29.390000 10665.113078
29.400000 10662.980042
29.410000 10660.846095
29.420000 10658.711243
29.430000 10656.575488
29.440000 10654.438832
29.450000 10652.301280
29.460000 10650.162834
29.470000 10648.023498
29.480000 10645.883275
29.490000 10643.742167
29.500000 10641.600179
29.510000 10639.457313
29.520000 10637.313572
29.530000 10635.168959
29.540000 10633.023478
29.550000 10630.877132
29.560000 10628.729924
29.570000 10626.581856
29.580000 10624.432933
29.590000 10622.283156
29.600000 10620.132530
29.610000 10617.981056
29.620000 10615.828739
29.630000 10613.675582
29.640000 10611.521587
29.650000 10609.366757
29.660000 10607.211096
29.670000 10605.054606
29.680000 10602.897291
29.690000 10600.739154
29.700000 10598.580197
29.710000 10596.420424
29.720000 10594.259838
29.730000 10592.098441
29.740000 10589.936237
29.750000 10587.773229
29.760000 10585.609419
29.770000 10583.444811
29.780000 10581.279408
29.790000 10579.113212
29.800000 10576.946227
29.810000 10574.778456
29.820000 10572.609901
29.830000 10570.440565
29.840000 10568.270452
29.850000 10566.099564
29.860000 10563.927905
29.870000 10561.755477
29.880000 10559.582283
29.890000 10557.408326
29.900000 10555.233608
29.910000 10553.058134
29.920000 10550.881906
29.930000 10548.704926
29.940000 10546.527198
29.950000 10544.348724
29.960000 10542.169508
29.970000 10539.989551
29.980000 10537.808858
29.990000 10535.627431
