# Wavelength(micron) Flux(mJy)
0.450000 51.701179
0.460000 67.289385
0.470000 42.804980
0.480000 56.601378
0.490000 75.887655
0.500000 75.728992
0.510000 65.776097
0.520000 62.960672
0.530000 61.081604
0.540000 71.244552
0.550000 82.900408
0.560000 42.917063
0.570000 84.674441
0.580000 89.758304
0.590000 90.132572
0.600000 92.888714
0.610000 93.529681
0.620000 94.906324
0.630000 95.414701
0.640000 93.046873
0.650000 97.409615
0.660000 97.999849
0.670000 98.094889
0.680000 98.251391
0.690000 92.589486
0.700000 100.845487
0.710000 100.854051
0.720000 101.379341
0.730000 98.887692
0.740000 100.788558
0.750000 102.571041
0.760000 103.005705
0.770000 103.706381
0.780000 95.725076
0.790000 103.736295
0.800000 102.401603
0.810000 102.639980
0.820000 104.554835
0.830000 104.233862
0.840000 103.750813
0.850000 66.502953
0.860000 100.550625
0.870000 104.636677
0.880000 104.802638
0.890000 105.154611
0.900000 102.296579
0.910000 104.042422
0.920000 104.644232
0.930000 104.003385
0.940000 102.088719
0.950000 104.068949
0.960000 100.555548
0.970000 104.491169
0.980000 103.138168
0.990000 104.110725
1.000000 103.173663
1.010000 93.539179
1.020000 103.673398
1.030000 102.317003
1.040000 103.068261
1.050000 103.338474
1.060000 101.556389
1.070000 102.446071
1.080000 101.594698
1.090000 99.570831
1.100000 101.329027
1.110000 100.389226
1.120000 90.119588
1.130000 99.286682
1.140000 101.319526
1.150000 101.251510
1.160000 100.862532
1.170000 100.795169
1.180000 100.668206
1.190000 98.481044
1.200000 99.943408
1.210000 98.960531
1.220000 96.984949
1.230000 98.886566
1.240000 98.635108
1.250000 98.158028
1.260000 99.131534
1.270000 97.345069
1.280000 97.438483
1.290000 98.060821
1.300000 98.394784
1.310000 96.616525
1.320000 97.066834
1.330000 97.442061
1.340000 96.227361
1.350000 97.169185
1.360000 97.132687
1.370000 96.445319
1.380000 96.246315
1.390000 94.333306
1.400000 83.420140
1.410000 94.870072
1.420000 94.798134
1.430000 95.444610
1.440000 95.421462
1.450000 95.467408
1.460000 95.487998
1.470000 94.399715
1.480000 94.904567
1.490000 93.642726
1.500000 94.423060
1.510000 90.212118
1.520000 91.467659
1.530000 86.201754
1.540000 88.283615
1.550000 91.363050
1.560000 92.972274
1.570000 90.237563
1.580000 92.647385
1.590000 84.230088
1.600000 91.542346
1.610000 76.336389
1.620000 86.941916
1.630000 90.324629
1.640000 85.376951
1.650000 88.604676
1.660000 87.472915
1.670000 87.703611
1.680000 82.563303
1.690000 84.585940
1.700000 82.479271
1.710000 84.654786
1.720000 83.350049
1.730000 82.724452
1.740000 80.430061
1.750000 81.711881
1.760000 80.543888
1.770000 79.315676
1.780000 79.545967
1.790000 79.101389
1.800000 77.825802
1.810000 76.381356
1.820000 74.383440
1.830000 75.764199
1.840000 74.070549
1.850000 74.668836
1.860000 73.046238
1.870000 72.062695
1.880000 71.935000
1.890000 71.230042
1.900000 72.009742
1.910000 71.423094
1.920000 59.593863
1.930000 70.145368
1.940000 64.645184
1.950000 64.376415
1.960000 68.243968
1.970000 68.037575
1.980000 66.971102
1.990000 66.753040
2.000000 66.233562
2.010000 65.442254
2.020000 65.137884
2.030000 63.788642
2.040000 64.290638
2.050000 63.748821
2.060000 62.857509
2.070000 62.405855
2.080000 62.040384
2.090000 61.600344
2.100000 61.085461
2.110000 55.375540
2.120000 58.790602
2.130000 57.020532
2.140000 59.391450
2.150000 58.971011
2.160000 57.929086
2.170000 56.961925
2.180000 57.343796
2.190000 55.760556
2.200000 55.772276
2.210000 56.047387
2.220000 55.763646
2.230000 55.401555
2.240000 54.842907
2.250000 52.747561
2.260000 54.179418
2.270000 53.774844
2.280000 52.789237
2.290000 52.976179
2.300000 52.649734
2.310000 51.748852
2.320000 51.625418
2.330000 51.561212
2.340000 51.001337
2.350000 50.831275
2.360000 49.957963
2.370000 49.062647
2.380000 49.666394
2.390000 49.190524
2.400000 48.359086
2.410000 45.435077
2.420000 47.091141
2.430000 47.844349
2.440000 47.432293
2.450000 47.209973
2.460000 46.949952
2.470000 43.820238
2.480000 45.798292
2.490000 45.790360
2.500000 44.845989
2.510000 44.651697
2.520000 44.654549
2.530000 44.596399
2.540000 43.758231
2.550000 43.291124
2.560000 43.342796
2.570000 43.113067
2.580000 43.019427
2.590000 43.036204
2.600000 42.031437
2.610000 41.829823
2.620000 41.459591
2.630000 41.230462
2.640000 30.846662
2.650000 41.075271
2.660000 41.021406
2.670000 40.630054
2.680000 40.319529
2.690000 40.105952
2.700000 39.931949
2.710000 39.934071
2.720000 39.319128
2.730000 39.497746
2.740000 38.943050
2.750000 38.917905
2.760000 37.807883
2.770000 38.171235
2.780000 38.284131
2.790000 38.033336
2.800000 37.836935
2.810000 37.677554
2.820000 37.126258
2.830000 37.062912
2.840000 36.824851
2.850000 36.774370
2.860000 35.936809
2.870000 34.295002
2.880000 36.016471
2.890000 35.998254
2.900000 35.873925
2.910000 35.615616
2.920000 35.513460
2.930000 35.146521
2.940000 35.051518
2.950000 34.975001
2.960000 34.663014
2.970000 34.354400
2.980000 34.490430
2.990000 34.266699
3.000000 33.379219
3.010000 33.946136
3.020000 33.842486
3.030000 33.717504
3.040000 32.134087
3.050000 33.345821
3.060000 33.422317
3.070000 33.164594
3.080000 33.076375
3.090000 33.052928
3.100000 32.871882
3.110000 32.835238
3.120000 32.749253
3.130000 32.536941
3.140000 32.138208
3.150000 32.463854
3.160000 32.172724
3.170000 29.957130
3.180000 31.975962
3.190000 32.203603
3.200000 32.068670
3.210000 31.876277
3.220000 32.070481
3.230000 31.974077
3.240000 31.919679
3.250000 31.945006
3.260000 31.930859
3.270000 31.916188
3.280000 31.796698
3.290000 31.835004
3.300000 31.560994
3.310000 31.895062
3.320000 26.204868
3.330000 31.935250
3.340000 31.669208
3.350000 32.032221
3.360000 32.111770
3.370000 31.564850
3.380000 32.229630
3.390000 32.272692
3.400000 32.247022
3.410000 32.455555
3.420000 32.528697
3.430000 32.713708
3.440000 32.588481
3.450000 32.908749
3.460000 33.076447
3.470000 33.179260
3.480000 33.380798
3.490000 33.559717
3.500000 33.723441
3.510000 33.625689
3.520000 34.017442
3.530000 34.315920
3.540000 34.250627
3.550000 34.808373
3.560000 34.941473
3.570000 35.249537
3.580000 35.263832
3.590000 35.816684
3.600000 36.164173
3.610000 36.443294
3.620000 36.756731
3.630000 36.926243
3.640000 37.411419
3.650000 37.770899
3.660000 37.864805
3.670000 38.529827
3.680000 38.819168
3.690000 39.289247
3.700000 39.799501
3.710000 40.266151
3.720000 40.599077
3.730000 41.054251
3.740000 40.590242
3.750000 42.092575
3.760000 42.614881
3.770000 43.296727
3.780000 43.749188
3.790000 44.319156
3.800000 44.957360
3.810000 45.623066
3.820000 46.141455
3.830000 46.924818
3.840000 47.589842
3.850000 48.233068
3.860000 48.950744
3.870000 49.731092
3.880000 50.475189
3.890000 51.260004
3.900000 52.043777
3.910000 52.785697
3.920000 53.278382
3.930000 54.571425
3.940000 55.478533
3.950000 55.977390
3.960000 57.297233
3.970000 58.245038
3.980000 59.234089
3.990000 60.197634
4.000000 61.200522
4.010000 62.300600
4.020000 63.350425
4.030000 64.490918
4.040000 65.638021
4.050000 66.549950
4.060000 67.946727
4.070000 68.325181
4.080000 70.406590
4.090000 71.673379
4.100000 72.875889
4.110000 74.233230
4.120000 75.622473
4.130000 77.034647
4.140000 78.386453
4.150000 79.794643
4.160000 81.324469
4.170000 82.766906
4.180000 84.287729
4.190000 85.827573
4.200000 87.489376
4.210000 89.102021
4.220000 90.860665
4.230000 92.516232
4.240000 94.286849
4.250000 95.991343
4.260000 97.839809
4.270000 99.714694
4.280000 101.549768
4.290000 103.486372
4.300000 104.319394
4.310000 107.253904
4.320000 109.401594
4.330000 111.470241
4.340000 113.517263
4.350000 115.676494
4.360000 117.850062
4.370000 120.012426
4.380000 122.233206
4.390000 123.338520
4.400000 126.433678
4.410000 129.019858
4.420000 131.665875
4.430000 131.836191
4.440000 136.354654
4.450000 139.123639
4.460000 141.784342
4.470000 144.401019
4.480000 147.019539
4.490000 149.554267
4.500000 152.521951
4.510000 155.379129
4.520000 158.155997
4.530000 161.068980
4.540000 163.816813
4.550000 166.619980
4.560000 170.019018
4.570000 172.959038
4.580000 175.619437
4.590000 176.653982
4.600000 181.010748
4.610000 185.150042
4.620000 186.992868
4.630000 191.096428
4.640000 196.070754
4.650000 199.266491
4.660000 201.399810
4.670000 206.627210
4.680000 210.336816
4.690000 213.891290
4.700000 215.168888
4.710000 221.580646
4.720000 225.190468
4.730000 229.284056
4.740000 232.200167
4.750000 237.029905
4.760000 241.380565
4.770000 244.140675
4.780000 248.875587
4.790000 253.963757
4.800000 258.141731
4.810000 260.246350
4.820000 266.985457
4.830000 271.500625
4.840000 274.078174
4.850000 280.309903
4.860000 284.736685
4.870000 289.805327
4.880000 294.782428
4.890000 298.564073
4.900000 304.444451
4.910000 309.505601
4.920000 313.902793
4.930000 319.599623
4.940000 324.141667
4.950000 329.965641
4.960000 335.108797
4.970000 340.220105
4.980000 345.922652
4.990000 351.068185
5.000000 356.550115
5.010000 362.568255
5.020000 368.230850
5.030000 373.892168
5.040000 379.746366
5.050000 384.828387
5.060000 391.527371
5.070000 397.573968
5.080000 403.169986
5.090000 409.806405
5.100000 416.009396
5.110000 422.273485
5.120000 427.514001
5.130000 434.934782
5.140000 441.477707
5.150000 448.137617
5.160000 454.740592
5.170000 461.485589
5.180000 468.036290
5.190000 475.076483
5.200000 481.890488
5.210000 488.761806
5.220000 495.885141
5.230000 503.252168
5.240000 510.379971
5.250000 517.510100
5.260000 524.985249
5.270000 532.403294
5.280000 540.071807
5.290000 547.655424
5.300000 555.129781
5.310000 560.796888
5.320000 570.323553
5.330000 578.750871
5.340000 586.696829
5.350000 594.661880
5.360000 602.847516
5.370000 610.988450
5.380000 619.316389
5.390000 627.088523
5.400000 636.252826
5.410000 642.763002
5.420000 653.369488
5.430000 662.053313
5.440000 670.816863
5.450000 679.628959
5.460000 688.577862
5.470000 697.588499
5.480000 706.499094
5.490000 715.839652
5.500000 723.823695
5.510000 734.397205
5.520000 743.758512
5.530000 753.093057
5.540000 762.538387
5.550000 771.254330
5.560000 782.266746
5.570000 792.083642
5.580000 801.995807
5.590000 811.979243
5.600000 822.052252
5.610000 832.215642
5.620000 842.431971
5.630000 852.774889
5.640000 863.046466
5.650000 873.678308
5.660000 884.257047
5.670000 894.932567
5.680000 905.669714
5.690000 916.463195
5.700000 927.268809
5.710000 938.417781
5.720000 949.520650
5.730000 960.191591
5.740000 971.967483
5.750000 983.323206
5.760000 994.771160
5.770000 1006.277279
5.780000 1017.904375
5.790000 1029.556251
5.800000 1041.363049
5.810000 1053.013751
5.820000 1065.210314
5.830000 1077.223819
5.840000 1088.875996
5.850000 1101.569333
5.860000 1113.931340
5.870000 1126.337281
5.880000 1138.834361
5.890000 1151.305243
5.900000 1163.390547
5.910000 1176.725396
5.920000 1189.662612
5.930000 1202.602013
5.940000 1215.624768
5.950000 1228.415444
5.960000 1241.621825
5.970000 1255.205255
5.980000 1268.589384
5.990000 1282.062689
6.000000 1295.598906
6.010000 1309.256031
6.020000 1322.965887
6.030000 1336.828125
6.040000 1350.201519
6.050000 1363.999865
6.060000 1378.800738
6.070000 1393.021050
6.080000 1407.284530
6.090000 1421.632765
6.100000 1435.270002
6.110000 1450.336758
6.120000 1465.278256
6.130000 1479.976125
6.140000 1494.804518
6.150000 1509.712752
6.160000 1524.705940
6.170000 1539.794182
6.180000 1554.957426
6.190000 1570.210802
6.200000 1585.584062
6.210000 1601.012635
6.220000 1616.477584
6.230000 1632.179562
6.240000 1647.898064
6.250000 1663.696827
6.260000 1679.575890
6.270000 1695.574139
6.280000 1711.647804
6.290000 1727.806670
6.300000 1744.079460
6.310000 1760.404598
6.320000 1776.832330
6.330000 1793.374610
6.340000 1809.987589
6.350000 1826.699819
6.360000 1843.421797
6.370000 1860.355677
6.380000 1877.341346
6.390000 1894.393265
6.400000 1911.562752
6.410000 1928.807606
6.420000 1946.127882
6.430000 1963.565290
6.440000 1981.068740
6.450000 1998.656795
6.460000 2016.338579
6.470000 2034.127681
6.480000 2051.987230
6.490000 2069.958698
6.500000 2087.991455
6.510000 2106.121952
6.520000 2124.359056
6.530000 2142.657547
6.540000 2161.057906
6.550000 2179.488632
6.560000 2198.096559
6.570000 2216.787983
6.580000 2235.527367
6.590000 2254.376696
6.600000 2273.239102
6.610000 2292.320558
6.620000 2311.423694
6.630000 2330.614163
6.640000 2349.865695
6.650000 2369.243456
6.660000 2388.695101
6.670000 2408.233526
6.680000 2427.858594
6.690000 2447.570160
6.700000 2467.350982
6.710000 2487.252213
6.720000 2507.171582
6.730000 2527.253077
6.740000 2547.420342
6.750000 2567.597342
6.760000 2587.935469
6.770000 2608.354611
6.780000 2628.825326
6.790000 2649.410239
6.800000 2670.063197
6.810000 2690.800752
6.820000 2711.622728
6.830000 2732.524833
6.840000 2753.519236
6.850000 2774.593405
6.860000 2795.751272
6.870000 2816.976444
6.880000 2838.325497
6.890000 2859.725193
6.900000 2881.224059
6.910000 2902.785454
6.920000 2924.453589
6.930000 2946.179942
6.940000 2968.012494
6.950000 2989.914955
6.960000 3011.887212
6.970000 3033.964859
6.980000 3056.111883
6.990000 3078.340004
7.000000 3100.649008
7.010000 3123.038676
7.020000 3145.512702
7.030000 3168.059128
7.040000 3190.693356
7.050000 3213.403469
7.060000 3236.193110
7.070000 3259.073665
7.080000 3282.010136
7.090000 3305.048566
7.100000 3328.154062
7.110000 3351.337941
7.120000 3374.599964
7.130000 3397.939889
7.140000 3421.368851
7.150000 3444.856261
7.160000 3468.432180
7.170000 3492.077504
7.180000 3515.806997
7.190000 3539.609162
7.200000 3563.502408
7.210000 3587.456612
7.220000 3611.486472
7.230000 3635.591733
7.240000 3659.772133
7.250000 3684.031087
7.260000 3708.360980
7.270000 3732.776186
7.280000 3757.243534
7.290000 3781.806577
7.300000 3806.432229
7.310000 3831.123929
7.320000 3855.917547
7.330000 3880.762172
7.340000 3905.661305
7.350000 3930.668520
7.360000 3955.729687
7.370000 3980.866041
7.380000 4006.066615
7.390000 4031.327687
7.400000 4056.698384
7.410000 4082.107775
7.420000 4107.615540
7.430000 4133.168553
7.440000 4158.674241
7.450000 4184.497208
7.460000 4210.182298
7.470000 4236.095046
7.480000 4262.010668
7.490000 4287.977113
7.500000 4313.963503
7.510000 4340.113382
7.520000 4366.286055
7.530000 4392.549605
7.540000 4418.855859
7.550000 4445.228495
7.560000 4471.670609
7.570000 4498.185238
7.580000 4524.755157
7.590000 4551.390244
7.600000 4578.103632
7.610000 4604.864743
7.620000 4631.696790
7.630000 4658.589427
7.640000 4685.555663
7.650000 4712.568576
7.660000 4739.628087
7.670000 4766.793112
7.680000 4793.987647
7.690000 4821.296689
7.700000 4848.618248
7.710000 4876.017602
7.720000 4903.487808
7.730000 4930.983002
7.740000 4958.567915
7.750000 4986.225871
7.760000 5013.920975
7.770000 5041.675598
7.780000 5069.502265
7.790000 5097.374920
7.800000 5125.306127
7.810000 5153.308319
7.820000 5181.355621
7.830000 5209.435249
7.840000 5237.613181
7.850000 5265.854339
7.860000 5294.129975
7.870000 5322.465027
7.880000 5350.862283
7.890000 5379.305731
7.900000 5407.816950
7.910000 5436.370619
7.920000 5464.978924
7.930000 5493.653921
7.940000 5522.367380
7.950000 5551.140666
7.960000 5579.976470
7.970000 5608.852925
7.980000 5637.782032
7.990000 5666.763459
8.000000 5695.809036
8.010000 5724.894064
8.020000 5754.042526
8.030000 5783.229823
8.040000 5812.467775
8.050000 5841.768067
8.060000 5871.100291
8.070000 5900.473623
8.080000 5929.943263
8.090000 5959.438330
8.100000 5988.973060
8.110000 6018.559072
8.120000 6048.198951
8.130000 6077.880521
8.140000 6107.606430
8.150000 6137.382235
8.160000 6167.204655
8.170000 6197.087951
8.180000 6226.996704
8.190000 6256.959813
8.200000 6286.959499
8.210000 6317.021441
8.220000 6347.122176
8.230000 6377.258485
8.240000 6407.447346
8.250000 6437.674021
8.260000 6467.949657
8.270000 6498.262457
8.280000 6528.614972
8.290000 6559.021094
8.300000 6589.457722
8.310000 6619.947233
8.320000 6650.458174
8.330000 6681.038176
8.340000 6711.633370
8.350000 6742.282812
8.360000 6772.972100
8.370000 6803.695308
8.380000 6834.463278
8.390000 6865.264518
8.400000 6896.107050
8.410000 6926.984988
8.420000 6957.909044
8.430000 6988.859562
8.440000 7019.858251
8.450000 7050.882779
8.460000 7081.952020
8.470000 7113.043779
8.480000 7144.193153
8.490000 7175.364398
8.500000 7206.568099
8.510000 7237.817439
8.520000 7269.090459
8.530000 7300.408400
8.540000 7331.757449
8.550000 7363.137287
8.560000 7394.544935
8.570000 7425.862667
8.580000 7457.471683
8.590000 7488.984765
8.600000 7520.524357
8.610000 7552.100727
8.620000 7583.702968
8.630000 7615.341300
8.640000 7647.004866
8.650000 7678.706459
8.660000 7710.427408
8.670000 7742.185700
8.680000 7773.967956
8.690000 7805.786850
8.700000 7837.623880
8.710000 7869.499453
8.720000 7901.395129
8.730000 7933.323497
8.740000 7965.273925
8.750000 7997.256367
8.760000 8029.250042
8.770000 8061.295456
8.780000 8093.359108
8.790000 8125.438165
8.800000 8157.552630
8.810000 8189.676855
8.820000 8221.845885
8.830000 8254.031622
8.840000 8286.236294
8.850000 8318.462120
8.860000 8350.721282
8.870000 8382.948976
8.880000 8415.298287
8.890000 8447.622977
8.900000 8479.969706
8.910000 8512.333207
8.920000 8544.723064
8.930000 8577.136465
8.940000 8609.560798
8.950000 8642.012971
8.960000 8674.480381
8.970000 8706.974955
8.980000 8739.486593
8.990000 8771.998025
9.000000 8804.564718
9.010000 8837.125751
9.020000 8869.714727
9.030000 8902.314414
9.040000 8934.934164
9.050000 8967.578445
9.060000 9000.227760
9.070000 9032.903365
9.080000 9065.595366
9.090000 9098.268163
9.100000 9131.017823
9.110000 9163.747713
9.120000 9196.499895
9.130000 9229.266954
9.140000 9262.050937
9.150000 9294.846830
9.160000 9327.654347
9.170000 9360.475539
9.180000 9393.310105
9.190000 9426.160074
9.200000 9459.025130
9.210000 9491.898005
9.220000 9524.785371
9.230000 9557.679993
9.240000 9590.593119
9.250000 9623.510617
9.260000 9656.443708
9.270000 9689.387494
9.280000 9722.337098
9.290000 9755.303666
9.300000 9788.280040
9.310000 9821.259111
9.320000 9854.251966
9.330000 9887.256022
9.340000 9920.259696
9.350000 9953.280766
9.360000 9986.307657
9.370000 10019.340098
9.380000 10052.382291
9.390000 10085.413888
9.400000 10118.483594
9.410000 10151.548825
9.420000 10184.618197
9.430000 10217.691445
9.440000 10250.772719
9.450000 10283.861725
9.460000 10316.947169
9.470000 10350.039809
9.480000 10383.148103
9.490000 10416.249862
9.500000 10449.355785
9.510000 10482.478633
9.520000 10515.589838
9.530000 10548.715222
9.540000 10581.839309
9.550000 10614.968327
9.560000 10648.097679
9.570000 10681.224961
9.580000 10714.360662
9.590000 10747.498049
9.600000 10780.628296
9.610000 10813.768265
9.620000 10846.909119
9.630000 10880.044214
9.640000 10913.183934
9.650000 10946.325871
9.660000 10979.465523
9.670000 11012.600538
9.680000 11045.741195
9.690000 11078.880901
9.700000 11112.017298
9.710000 11145.148053
9.720000 11178.281279
9.730000 11211.410451
9.740000 11244.539478
9.750000 11277.649484
9.760000 11310.793964
9.770000 11343.912364
9.780000 11377.028208
9.790000 11410.138172
9.800000 11443.250569
9.810000 11476.365105
9.820000 11509.461052
9.830000 11542.560701
9.840000 11575.655608
9.850000 11608.745526
9.860000 11641.828178
9.870000 11674.903334
9.880000 11707.974810
9.890000 11741.036294
9.900000 11774.101666
9.910000 11807.150530
9.920000 11840.198751
9.930000 11873.240051
9.940000 11906.272191
9.950000 11939.294949
9.960000 11972.312083
9.970000 12005.323343
9.980000 12038.324519
9.990000 12071.315392
10.000000 12104.299689
10.010000 12137.277167
10.020000 12170.245618
10.030000 12203.198922
10.040000 12236.146684
10.050000 12269.088649
10.060000 12302.016766
10.070000 12334.846290
10.080000 12367.832602
10.090000 12400.721872
10.100000 12433.625412
10.110000 12466.502434
10.120000 12499.366246
10.130000 12532.222420
10.140000 12565.063018
10.150000 12597.889768
10.160000 12630.706294
10.170000 12663.512365
10.180000 12696.305848
10.190000 12729.086530
10.200000 12761.852291
10.210000 12794.601038
10.220000 12827.342044
10.230000 12860.048895
10.240000 12892.781002
10.250000 12925.474779
10.260000 12958.159930
10.270000 12990.830593
10.280000 13023.486562
10.290000 13056.127630
10.300000 13088.751727
10.310000 13121.358663
10.320000 13153.950102
10.330000 13186.531400
10.340000 13219.094927
10.350000 13251.642338
10.360000 13284.166064
10.370000 13316.682497
10.380000 13349.151188
10.390000 13381.661356
10.400000 13414.123400
10.410000 13446.569979
10.420000 13478.997243
10.430000 13511.410177
10.440000 13543.800365
10.450000 13576.175831
10.460000 13608.533040
10.470000 13640.848408
10.480000 13673.186516
10.490000 13705.486030
10.500000 13737.768335
10.510000 13770.031445
10.520000 13802.275175
10.530000 13834.499340
10.540000 13866.703758
10.550000 13898.886465
10.560000 13931.047292
10.570000 13963.189616
10.580000 13995.313244
10.590000 14027.416222
10.600000 14059.498374
10.610000 14091.557760
10.620000 14123.599489
10.630000 14155.616347
10.640000 14187.609933
10.650000 14219.583578
10.660000 14251.537096
10.670000 14283.468569
10.680000 14315.377824
10.690000 14347.262958
10.700000 14379.103163
10.710000 14410.968867
10.720000 14442.789297
10.730000 14474.583215
10.740000 14506.352200
10.750000 14538.099528
10.760000 14569.826734
10.770000 14601.526804
10.780000 14633.204710
10.790000 14664.858580
10.800000 14696.488254
10.810000 14728.090178
10.820000 14759.672681
10.830000 14791.227125
10.840000 14822.758434
10.850000 14854.264759
10.860000 14885.745945
10.870000 14917.201837
10.880000 14948.590743
10.890000 14980.037128
10.900000 15011.414551
10.910000 15042.764414
10.920000 15074.089902
10.930000 15105.392514
10.940000 15136.665458
10.950000 15167.913565
10.960000 15199.135030
10.970000 15230.331354
10.980000 15261.495801
10.990000 15292.639756
11.000000 15323.748278
11.010000 15354.834365
11.020000 15385.894581
11.030000 15416.923885
11.040000 15447.914051
11.050000 15478.900639
11.060000 15509.851053
11.070000 15540.766775
11.080000 15571.660642
11.090000 15602.519567
11.100000 15633.351510
11.110000 15664.157931
11.120000 15694.935475
11.130000 15725.679195
11.140000 15756.396989
11.150000 15787.085513
11.160000 15817.743041
11.170000 15848.374106
11.180000 15878.972578
11.190000 15909.545906
11.200000 15940.082975
11.210000 15970.591599
11.220000 16001.073218
11.230000 16031.521397
11.240000 16061.942310
11.250000 16092.329547
11.260000 16122.687698
11.270000 16153.015071
11.280000 16183.311544
11.290000 16213.575441
11.300000 16243.811317
11.310000 16274.006622
11.320000 16304.143803
11.330000 16334.324715
11.340000 16364.434855
11.350000 16394.511725
11.360000 16424.556760
11.370000 16454.569846
11.380000 16484.552404
11.390000 16514.498186
11.400000 16544.417811
11.410000 16574.298922
11.420000 16604.153635
11.430000 16633.969635
11.440000 16663.759000
11.450000 16693.509456
11.460000 16723.228501
11.470000 16752.917526
11.480000 16782.574908
11.490000 16812.193000
11.500000 16841.779251
11.510000 16871.335044
11.520000 16900.858770
11.530000 16930.342836
11.540000 16959.799120
11.550000 16989.215565
11.560000 17018.599545
11.570000 17047.952432
11.580000 17077.272638
11.590000 17106.552652
11.600000 17135.804231
11.610000 17165.019875
11.620000 17194.198016
11.630000 17223.344466
11.640000 17252.453235
11.650000 17281.530116
11.660000 17310.569140
11.670000 17339.576082
11.680000 17368.546456
11.690000 17397.481635
11.700000 17426.381532
11.710000 17455.246056
11.720000 17484.075120
11.730000 17512.868636
11.740000 17541.626518
11.750000 17570.350120
11.760000 17599.033594
11.770000 17627.686934
11.780000 17656.302856
11.790000 17684.879848
11.800000 17713.422140
11.810000 17741.928200
11.820000 17770.399386
11.830000 17798.832758
11.840000 17827.229665
11.850000 17855.590028
11.860000 17883.913767
11.870000 17912.200805
11.880000 17940.451065
11.890000 17968.664469
11.900000 17996.842346
11.910000 18024.980407
11.920000 18053.084191
11.930000 18081.148018
11.940000 18109.177412
11.950000 18137.170896
11.960000 18165.121425
11.970000 18193.040078
11.980000 18220.919819
11.990000 18248.759194
12.000000 18276.563685
12.010000 18304.329064
12.020000 18332.056648
12.030000 18359.746370
12.040000 18387.398162
12.050000 18415.011958
12.060000 18442.589061
12.070000 18470.123932
12.080000 18497.621995
12.090000 18525.085872
12.100000 18552.508711
12.110000 18579.897241
12.120000 18607.200341
12.130000 18634.550742
12.140000 18661.816970
12.150000 18689.051325
12.160000 18716.242936
12.170000 18743.395800
12.180000 18770.511200
12.190000 18797.585051
12.200000 18824.622660
12.210000 18851.622625
12.220000 18878.578206
12.230000 18905.500036
12.240000 18932.381382
12.250000 18959.222192
12.260000 18986.015810
12.270000 19012.785995
12.280000 19039.510203
12.290000 19066.192355
12.300000 19092.837679
12.310000 19119.444799
12.320000 19146.007088
12.330000 19172.535015
12.340000 19199.021958
12.350000 19225.447064
12.360000 19251.870106
12.370000 19278.215768
12.380000 19304.566835
12.390000 19330.852107
12.400000 19357.101320
12.410000 19383.306644
12.420000 19409.478392
12.430000 19435.603578
12.440000 19461.691217
12.450000 19487.737387
12.460000 19513.743338
12.470000 19539.709028
12.480000 19565.635694
12.490000 19591.523291
12.500000 19617.369218
12.510000 19643.172161
12.520000 19668.937191
12.530000 19694.660439
12.540000 19720.343142
12.550000 19745.985263
12.560000 19771.588026
12.570000 19797.151392
12.580000 19822.672794
12.590000 19848.150940
12.600000 19873.590839
12.610000 19898.988675
12.620000 19924.346927
12.630000 19949.661802
12.640000 19974.938272
12.650000 20000.175047
12.660000 20025.369599
12.670000 20050.520652
12.680000 20075.633158
12.690000 20100.703353
12.700000 20125.733686
12.710000 20150.724123
12.720000 20175.672160
12.730000 20200.576537
12.740000 20225.442164
12.750000 20250.265311
12.760000 20275.048410
12.770000 20299.787756
12.780000 20324.488220
12.790000 20349.148545
12.800000 20373.708761
12.810000 20398.340134
12.820000 20422.875007
12.830000 20447.367205
12.840000 20471.815501
12.850000 20496.230755
12.860000 20520.599636
12.870000 20544.925753
12.880000 20569.210295
12.890000 20593.453239
12.900000 20617.655762
12.910000 20641.817840
12.920000 20665.937053
12.930000 20690.012188
12.940000 20714.048012
12.950000 20738.040918
12.960000 20761.993272
12.970000 20785.905051
12.980000 20809.773859
12.990000 20833.599682
13.000000 20857.383692
13.010000 20881.125871
13.020000 20904.827381
13.030000 20928.488201
13.040000 20952.105961
13.050000 20975.680648
13.060000 20999.214596
13.070000 21022.619117
13.080000 21046.154361
13.090000 21069.563654
13.100000 21092.929810
13.110000 21116.252821
13.120000 21139.535002
13.130000 21162.775304
13.140000 21185.972175
13.150000 21209.128302
13.160000 21232.243543
13.170000 21255.315577
13.180000 21278.344397
13.190000 21301.332298
13.200000 21324.275825
13.210000 21347.179558
13.220000 21370.042337
13.230000 21392.861864
13.240000 21415.638090
13.250000 21438.370021
13.260000 21461.066586
13.270000 21483.716475
13.280000 21506.325357
13.290000 21528.893222
13.300000 21551.417800
13.310000 21573.899088
13.320000 21596.338214
13.330000 21618.735174
13.340000 21641.094458
13.350000 21663.407065
13.360000 21685.677494
13.370000 21707.905742
13.380000 21730.092921
13.390000 21752.239027
13.400000 21774.341824
13.410000 21796.401313
13.420000 21818.419720
13.430000 21840.397040
13.440000 21862.331053
13.450000 21884.221760
13.460000 21906.071377
13.470000 21927.879899
13.480000 21949.645120
13.490000 21971.367043
13.500000 21993.047872
13.510000 22014.687605
13.520000 22036.280763
13.530000 22057.836112
13.540000 22079.348181
13.550000 22100.816975
13.560000 22122.244679
13.570000 22143.631291
13.580000 22164.974642
13.590000 22186.274739
13.600000 22207.533755
13.610000 22228.751691
13.620000 22249.926390
13.630000 22271.057860
13.640000 22292.147189
13.650000 22313.197604
13.660000 22334.203736
13.670000 22355.166669
13.680000 22376.088556
13.690000 22396.969400
13.700000 22417.807070
13.710000 22438.601577
13.720000 22459.355061
13.730000 22480.067528
13.740000 22500.736860
13.750000 22521.363068
13.760000 22541.948283
13.770000 22562.492511
13.780000 22582.993647
13.790000 22603.445421
13.800000 22623.868802
13.810000 22644.244947
13.820000 22664.578048
13.830000 22684.868120
13.840000 22705.117269
13.850000 22725.325505
13.860000 22745.490750
13.870000 22765.613019
13.880000 22785.694408
13.890000 22805.734927
13.900000 22825.732511
13.910000 22845.687177
13.920000 22865.601010
13.930000 22885.474021
13.940000 22905.304158
13.950000 22925.091438
13.960000 22944.837937
13.970000 22964.543666
13.980000 22984.206585
13.990000 23003.817542
14.000000 23023.406116
14.010000 23042.944804
14.020000 23062.441645
14.030000 23081.893979
14.040000 23101.306538
14.050000 23120.678444
14.060000 23140.008695
14.070000 23159.297310
14.080000 23178.543293
14.090000 23197.746667
14.100000 23216.909471
14.110000 23236.031719
14.120000 23255.111415
14.130000 23274.148581
14.140000 23293.145245
14.150000 23312.101423
14.160000 23331.015132
14.170000 23349.886394
14.180000 23368.717226
14.190000 23387.507646
14.200000 23406.255682
14.210000 23424.961358
14.220000 23443.622776
14.230000 23462.252658
14.240000 23480.835348
14.250000 23499.377744
14.260000 23517.877889
14.270000 23536.335811
14.280000 23554.752518
14.290000 23573.130978
14.300000 23591.466300
14.310000 23609.759493
14.320000 23628.012539
14.330000 23646.225458
14.340000 23664.397294
14.350000 23682.525152
14.360000 23700.616841
14.370000 23718.660722
14.380000 23736.670405
14.390000 23754.637189
14.400000 23772.562068
14.410000 23790.445070
14.420000 23808.288151
14.430000 23826.091334
14.440000 23843.853679
14.450000 23861.572331
14.460000 23879.254997
14.470000 23896.893065
14.480000 23914.491360
14.490000 23932.049903
14.500000 23949.566810
14.510000 23967.042111
14.520000 23984.480593
14.530000 24001.873715
14.540000 24019.229118
14.550000 24036.543973
14.560000 24053.817361
14.570000 24071.049314
14.580000 24088.241751
14.590000 24105.394696
14.600000 24122.507232
14.610000 24139.579389
14.620000 24156.610255
14.630000 24173.599864
14.640000 24190.550119
14.650000 24207.461047
14.660000 24224.330806
14.670000 24241.162226
14.680000 24257.951604
14.690000 24274.699908
14.700000 24291.409027
14.710000 24308.078990
14.720000 24324.707971
14.730000 24341.298776
14.740000 24357.847736
14.750000 24374.355810
14.760000 24390.824876
14.770000 24407.254960
14.780000 24423.644254
14.790000 24439.992792
14.800000 24456.305189
14.810000 24472.573227
14.820000 24488.804268
14.830000 24504.995595
14.840000 24521.146328
14.850000 24537.259233
14.860000 24553.330700
14.870000 24569.361676
14.880000 24585.354009
14.890000 24601.307730
14.900000 24617.221964
14.910000 24633.096743
14.920000 24648.931200
14.930000 24664.725370
14.940000 24680.481089
14.950000 24696.198387
14.960000 24711.876399
14.970000 24727.515157
14.980000 24743.113801
14.990000 24758.672368
15.000000 24774.192680
15.010000 24789.675661
15.020000 24805.117776
15.030000 24820.521734
15.040000 24835.885793
15.050000 24851.209988
15.060000 24866.498786
15.070000 24881.745134
15.080000 24896.953496
15.090000 24912.123905
15.100000 24927.255512
15.110000 24942.348352
15.120000 24957.401583
15.130000 24972.415243
15.140000 24987.391124
15.150000 25002.329260
15.160000 25017.228808
15.170000 25032.089805
15.180000 25046.911417
15.190000 25061.693683
15.200000 25076.438380
15.210000 25091.146411
15.220000 25105.814338
15.230000 25120.389076
15.240000 25135.036973
15.250000 25149.590886
15.260000 25164.105718
15.270000 25178.580647
15.280000 25193.022599
15.290000 25207.422141
15.300000 25221.784476
15.310000 25236.109638
15.320000 25250.396807
15.330000 25264.646020
15.340000 25278.856461
15.350000 25293.028172
15.360000 25307.165452
15.370000 25321.261521
15.380000 25335.320680
15.390000 25349.342963
15.400000 25363.327558
15.410000 25377.273659
15.420000 25391.183842
15.430000 25405.054763
15.440000 25418.887311
15.450000 25432.683212
15.460000 25446.443343
15.470000 25460.164377
15.480000 25473.848876
15.490000 25487.496040
15.500000 25501.105907
15.510000 25514.677682
15.520000 25528.211408
15.530000 25541.711293
15.540000 25555.170707
15.550000 25568.593859
15.560000 25581.980785
15.570000 25595.330694
15.580000 25608.643625
15.590000 25621.918792
15.600000 25635.158716
15.610000 25648.360132
15.620000 25661.523910
15.630000 25674.651739
15.640000 25687.744478
15.650000 25700.798880
15.660000 25713.817450
15.670000 25726.799407
15.680000 25739.744793
15.690000 25752.652832
15.700000 25765.526013
15.710000 25778.361115
15.720000 25791.158998
15.730000 25803.921331
15.740000 25816.648965
15.750000 25829.338691
15.760000 25841.992987
15.770000 25854.611083
15.780000 25867.193020
15.790000 25879.738033
15.800000 25892.248583
15.810000 25904.721488
15.820000 25917.157600
15.830000 25929.560976
15.840000 25941.925233
15.850000 25954.254428
15.860000 25966.548601
15.870000 25978.806991
15.880000 25991.029642
15.890000 26003.216595
15.900000 26015.367892
15.910000 26027.482784
15.920000 26039.563692
15.930000 26051.607486
15.940000 26063.615004
15.950000 26075.587874
15.960000 26087.526924
15.970000 26099.429037
15.980000 26111.289561
15.990000 26123.128939
16.000000 26134.926025
16.010000 26146.687924
16.020000 26158.409985
16.030000 26170.105551
16.040000 26181.762931
16.050000 26193.383732
16.060000 26204.968785
16.070000 26216.522026
16.080000 26228.037267
16.090000 26239.518447
16.100000 26250.966383
16.110000 26262.378009
16.120000 26273.755701
16.130000 26285.098724
16.140000 26296.407121
16.150000 26307.680937
16.160000 26318.920214
16.170000 26330.124227
16.180000 26341.295328
16.190000 26352.430484
16.200000 26363.529745
16.210000 26374.594697
16.220000 26385.630720
16.230000 26396.628690
16.240000 26407.593998
16.250000 26418.523636
16.260000 26429.419935
16.270000 26440.282178
16.280000 26451.110407
16.290000 26461.904667
16.300000 26472.665002
16.310000 26483.391456
16.320000 26494.084071
16.330000 26504.742142
16.340000 26515.367971
16.350000 26525.958589
16.360000 26536.514796
16.370000 26547.040394
16.380000 26557.529417
16.390000 26567.985664
16.400000 26578.409927
16.410000 26588.799253
16.420000 26599.156681
16.430000 26609.479264
16.440000 26619.769288
16.450000 26630.026051
16.460000 26640.249597
16.470000 26650.439971
16.480000 26660.597216
16.490000 26670.721378
16.500000 26680.812501
16.510000 26690.869892
16.520000 26700.895809
16.530000 26710.887346
16.540000 26720.847496
16.550000 26730.773359
16.560000 26740.665718
16.570000 26750.528286
16.580000 26760.355240
16.590000 26770.152487
16.600000 26779.914214
16.610000 26789.644128
16.620000 26799.342998
16.630000 26809.007952
16.640000 26818.641952
16.650000 26828.237782
16.660000 26837.810702
16.670000 26847.347001
16.680000 26856.851066
16.690000 26866.322942
16.700000 26875.762675
16.710000 26885.170307
16.720000 26894.545886
16.730000 26903.889455
16.740000 26913.201060
16.750000 26922.480745
16.760000 26931.728555
16.770000 26940.943820
16.780000 26950.128732
16.790000 26959.280475
16.800000 26968.397676
16.810000 26977.479004
16.820000 26986.545723
16.830000 26995.573806
16.840000 27004.566820
16.850000 27013.531204
16.860000 27022.461326
16.870000 27031.362903
16.880000 27040.230314
16.890000 27049.067146
16.900000 27057.874144
16.910000 27066.650646
16.920000 27075.393176
16.930000 27084.107411
16.940000 27092.787770
16.950000 27101.437815
16.960000 27110.058287
16.970000 27118.646430
16.980000 27127.205091
16.990000 27135.731510
17.000000 27144.228533
17.010000 27152.693414
17.020000 27161.128985
17.030000 27169.532502
17.040000 27177.906798
17.050000 27186.249136
17.060000 27194.562341
17.070000 27202.843676
17.080000 27211.095273
17.090000 27219.316482
17.100000 27227.507348
17.110000 27235.667915
17.120000 27243.798229
17.130000 27251.898337
17.140000 27259.968278
17.150000 27268.008102
17.160000 27276.017854
17.170000 27283.997577
17.180000 27291.947318
17.190000 27299.867120
17.200000 27307.757029
17.210000 27315.617091
17.220000 27323.447349
17.230000 27331.247849
17.240000 27339.018636
17.250000 27346.759754
17.260000 27354.471250
17.270000 27362.153167
17.280000 27369.805551
17.290000 27377.428446
17.300000 27385.021898
17.310000 27392.585952
17.320000 27400.120651
17.330000 27407.626042
17.340000 27415.102169
17.350000 27422.549081
17.360000 27429.966811
17.370000 27437.355415
17.380000 27444.714935
17.390000 27452.045415
17.400000 27459.346900
17.410000 27466.619435
17.420000 27473.863065
17.430000 27481.077834
17.440000 27488.263788
17.450000 27495.420970
17.460000 27502.549426
17.470000 27509.649200
17.480000 27516.720337
17.490000 27523.762882
17.500000 27530.777540
17.510000 27537.762373
17.520000 27544.719409
17.530000 27551.648031
17.540000 27558.548940
17.550000 27565.420212
17.560000 27572.263861
17.570000 27579.079274
17.580000 27585.867148
17.590000 27592.625571
17.600000 27599.357195
17.610000 27606.059461
17.620000 27612.735013
17.630000 27619.383244
17.640000 27626.000956
17.650000 27632.593381
17.660000 27639.155381
17.670000 27645.692171
17.680000 27652.198641
17.690000 27658.679983
17.700000 27665.131092
17.710000 27671.557159
17.720000 27677.955012
17.730000 27684.324056
17.740000 27690.666902
17.750000 27696.981029
17.760000 27703.269044
17.770000 27709.524621
17.780000 27715.761791
17.790000 27721.967252
17.800000 27728.145496
17.810000 27734.296569
17.820000 27740.420513
17.830000 27746.517373
17.840000 27752.587193
17.850000 27758.630016
17.860000 27764.645888
17.870000 27770.634850
17.880000 27776.596948
17.890000 27782.532226
17.900000 27788.440727
17.910000 27794.322494
17.920000 27800.177572
17.930000 27806.006633
17.940000 27811.807836
17.950000 27817.583735
17.960000 27823.331868
17.970000 27829.054780
17.980000 27834.751888
17.990000 27840.420119
18.000000 27846.064498
18.010000 27851.680094
18.020000 27857.271923
18.030000 27862.836914
18.040000 27868.374510
18.050000 27873.887217
18.060000 27879.372607
18.070000 27884.833193
18.080000 27890.267178
18.090000 27895.675209
18.100000 27901.057335
18.110000 27906.413598
18.120000 27911.744042
18.130000 27917.048709
18.140000 27922.327644
18.150000 27927.580889
18.160000 27932.808488
18.170000 27938.011094
18.180000 27943.186917
18.190000 27948.338444
18.200000 27953.465104
18.210000 27958.563896
18.220000 27963.639733
18.230000 27968.687794
18.240000 27973.712980
18.250000 27978.712297
18.260000 27983.685186
18.270000 27988.634111
18.280000 27993.556695
18.290000 27998.455395
18.300000 28003.328450
18.310000 28008.176499
18.320000 28012.999587
18.330000 28017.797756
18.340000 28022.571050
18.350000 28027.320109
18.360000 28032.043179
18.370000 28036.742704
18.380000 28041.418106
18.390000 28046.066462
18.400000 28050.692583
18.410000 28055.292573
18.420000 28059.868623
18.430000 28064.419881
18.440000 28068.947042
18.450000 28073.449674
18.460000 28077.927820
18.470000 28082.381816
18.480000 28086.811351
18.490000 28091.216584
18.500000 28095.598032
18.510000 28099.954908
18.520000 28104.287902
18.530000 28108.596823
18.540000 28112.881358
18.550000 28117.142373
18.560000 28121.379320
18.570000 28125.592127
18.580000 28129.781301
18.590000 28133.946594
18.600000 28138.088046
18.610000 28142.205757
18.620000 28146.299711
18.630000 28150.370008
18.640000 28154.417095
18.650000 28158.440143
18.660000 28162.440064
18.670000 28166.416261
18.680000 28170.368949
18.690000 28174.298286
18.700000 28178.204313
18.710000 28182.086954
18.720000 28185.946254
18.730000 28189.782366
18.740000 28193.595332
18.750000 28197.385079
18.760000 28201.151648
18.770000 28204.895021
18.780000 28208.615756
18.790000 28212.312749
18.800000 28215.987928
18.810000 28219.639390
18.820000 28223.268205
18.830000 28226.874013
18.840000 28230.457369
18.850000 28234.017743
18.860000 28237.555349
18.870000 28241.070337
18.880000 28244.562071
18.890000 28248.032573
18.900000 28251.479844
18.910000 28254.904548
18.920000 28258.306726
18.930000 28261.686699
18.940000 28265.044059
18.950000 28268.379125
18.960000 28271.691938
18.970000 28274.982483
18.980000 28278.250799
18.990000 28281.496870
19.000000 28284.720682
19.010000 28287.921716
19.020000 28291.102412
19.030000 28294.260131
19.040000 28297.393700
19.050000 28300.507057
19.060000 28303.598906
19.070000 28306.671077
19.080000 28309.719917
19.090000 28312.746414
19.100000 28315.751105
19.110000 28318.734031
19.120000 28321.695396
19.130000 28324.635020
19.140000 28327.552998
19.150000 28330.449643
19.160000 28333.324556
19.170000 28336.178216
19.180000 28339.010112
19.190000 28341.821051
19.200000 28344.610308
19.210000 28347.378466
19.220000 28350.125129
19.230000 28352.850771
19.240000 28355.554998
19.250000 28358.238282
19.260000 28360.900227
19.270000 28363.541308
19.280000 28366.161129
19.290000 28368.760163
19.300000 28371.338177
19.310000 28373.895156
19.320000 28376.431355
19.330000 28378.946597
19.340000 28381.441136
19.350000 28383.914850
19.360000 28386.367831
19.370000 28388.800116
19.380000 28391.211746
19.390000 28393.602757
19.400000 28395.973242
19.410000 28398.323079
19.420000 28400.652521
19.430000 28402.961496
19.440000 28405.250101
19.450000 28407.518156
19.460000 28409.765967
19.470000 28411.993413
19.480000 28414.200585
19.490000 28416.387521
19.500000 28418.554312
19.510000 28420.700996
19.520000 28422.827346
19.530000 28424.933505
19.540000 28427.020200
19.550000 28429.086515
19.560000 28431.132595
19.570000 28433.159269
19.580000 28435.165836
19.590000 28437.152596
19.600000 28439.119484
19.610000 28441.066535
19.620000 28442.993839
19.630000 28444.901593
19.640000 28446.789412
19.650000 28448.657807
19.660000 28450.506553
19.670000 28452.335686
19.680000 28454.145350
19.690000 28455.935579
19.700000 28457.706308
19.710000 28459.457574
19.720000 28461.189517
19.730000 28462.902173
19.740000 28464.595479
19.750000 28466.269468
19.760000 28467.924281
19.770000 28469.559956
19.780000 28471.176426
19.790000 28472.773727
19.800000 28474.351999
19.810000 28475.911175
19.820000 28477.451498
19.830000 28478.972698
19.840000 28480.475015
19.850000 28481.958482
19.860000 28483.423037
19.870000 28484.868717
19.880000 28486.295659
19.890000 28487.703898
19.900000 28489.093369
19.910000 28490.464109
19.920000 28491.816408
19.930000 28493.149895
19.940000 28494.464859
19.950000 28495.760436
19.960000 28497.039264
19.970000 28498.298674
19.980000 28499.539556
19.990000 28500.762398
20.000000 28501.966729
20.010000 28503.152739
20.020000 28504.320411
20.030000 28505.469933
20.040000 28506.601139
20.050000 28507.714115
20.060000 28508.808997
20.070000 28509.885818
20.080000 28510.944516
20.090000 28511.985275
20.100000 28513.007932
20.110000 28514.012541
20.120000 28514.999175
20.130000 28515.968281
20.140000 28516.919275
20.150000 28517.852541
20.160000 28518.767914
20.170000 28519.665579
20.180000 28520.545520
20.190000 28521.407772
20.200000 28522.252373
20.210000 28523.079354
20.220000 28523.888701
20.230000 28524.680597
20.240000 28525.454879
20.250000 28526.211633
20.260000 28526.951137
20.270000 28527.673033
20.280000 28528.377749
20.290000 28529.064925
20.300000 28529.734841
20.310000 28530.387583
20.320000 28531.022987
20.330000 28531.641282
20.340000 28532.242309
20.350000 28532.826295
20.360000 28533.393082
20.370000 28533.942895
20.380000 28534.475575
20.390000 28534.991351
20.400000 28535.490063
20.410000 28535.971938
20.420000 28536.436815
20.430000 28536.884923
20.440000 28537.316247
20.450000 28537.730578
20.460000 28538.128335
20.470000 28538.509171
20.480000 28538.872921
20.490000 28539.221113
20.500000 28539.551998
20.510000 28539.866383
20.520000 28540.164107
20.530000 28540.445299
20.540000 28540.710088
20.550000 28540.958459
20.560000 28541.190350
20.570000 28541.405747
20.580000 28541.604872
20.590000 28541.787617
20.600000 28541.954061
20.610000 28542.104238
20.620000 28542.238228
20.630000 28542.355922
20.640000 28542.457542
20.650000 28542.543071
20.660000 28542.612450
20.670000 28542.665711
20.680000 28542.702933
20.690000 28542.724149
20.700000 28542.729392
20.710000 28542.718693
20.720000 28542.692134
20.730000 28542.649743
20.740000 28542.591461
20.750000 28542.517325
20.760000 28542.426843
20.770000 28542.321552
20.780000 28542.200217
20.790000 28542.063294
20.800000 28541.910762
20.810000 28541.742428
20.820000 28541.558225
20.830000 28541.359026
20.840000 28541.144071
20.850000 28540.913532
20.860000 28540.667669
20.870000 28540.406379
20.880000 28540.129410
20.890000 28539.837408
20.900000 28539.530161
20.910000 28539.207380
20.920000 28538.869329
20.930000 28538.516040
20.940000 28538.142125
20.950000 28537.764049
20.960000 28537.365228
20.970000 28536.951293
20.980000 28536.522276
20.990000 28536.078390
21.000000 28535.619300
21.010000 28535.145221
21.020000 28534.656366
21.030000 28534.152400
21.040000 28533.633537
21.050000 28533.099944
21.060000 28532.551428
21.070000 28531.988014
21.080000 28531.409966
21.090000 28530.817171
21.100000 28530.209619
21.110000 28529.587343
21.120000 28528.950459
21.130000 28528.298774
21.140000 28527.632906
21.150000 28526.952207
21.160000 28526.257024
21.170000 28525.547387
21.180000 28524.823236
21.190000 28524.084782
21.200000 28523.331739
21.210000 28522.564318
21.220000 28521.782729
21.230000 28520.986642
21.240000 28520.176268
21.250000 28519.351769
21.260000 28518.512953
21.270000 28517.659894
21.280000 28516.792846
21.290000 28515.911480
21.300000 28515.016049
21.310000 28514.106629
21.320000 28513.183026
21.330000 28512.245536
21.340000 28511.293345
21.350000 28510.328259
21.360000 28509.348487
21.370000 28508.355346
21.380000 28507.348154
21.390000 28506.326855
21.400000 28505.292094
21.410000 28504.243769
21.420000 28503.181338
21.430000 28502.105396
21.440000 28501.013767
21.450000 28499.911487
21.460000 28498.793803
21.470000 28497.663835
21.480000 28496.519894
21.490000 28495.361943
21.500000 28494.190641
21.510000 28493.005671
21.520000 28491.796012
21.530000 28490.595536
21.540000 28489.370298
21.550000 28488.131419
21.560000 28486.879799
21.570000 28485.614592
21.580000 28484.336005
21.590000 28483.044239
21.600000 28481.739148
21.610000 28480.420936
21.620000 28479.089455
21.630000 28477.744909
21.640000 28476.387109
21.650000 28475.016385
21.660000 28473.632420
21.670000 28472.235588
21.680000 28470.825615
21.690000 28469.400735
21.700000 28467.966831
21.710000 28466.518076
21.720000 28465.056337
21.730000 28463.581808
21.740000 28462.094307
21.750000 28460.594161
21.760000 28459.081226
21.770000 28457.555358
21.780000 28456.016927
21.790000 28454.465620
21.800000 28452.901804
21.810000 28451.325168
21.820000 28449.736076
21.830000 28448.134219
21.840000 28446.519962
21.850000 28444.892994
21.860000 28443.253682
21.870000 28441.601755
21.880000 28439.937452
21.890000 28438.260759
21.900000 28436.571534
21.910000 28434.870013
21.920000 28433.156183
21.930000 28431.429817
21.940000 28429.691265
21.950000 28427.939467
21.960000 28426.175285
21.970000 28424.401900
21.980000 28422.614399
21.990000 28420.815277
22.000000 28419.003600
22.010000 28417.179644
22.020000 28415.343772
22.030000 28413.495800
22.040000 28411.635714
22.050000 28409.763749
22.060000 28407.879680
22.070000 28405.983743
22.080000 28404.075921
22.090000 28402.156035
22.100000 28400.224441
22.110000 28398.281001
22.120000 28396.325575
22.130000 28394.358519
22.140000 28392.379695
22.150000 28390.388963
22.160000 28388.386557
22.170000 28386.372707
22.180000 28384.346947
22.190000 28382.309627
22.200000 28380.260738
22.210000 28378.200220
22.220000 28376.128058
22.230000 28374.044484
22.240000 28371.949400
22.250000 28369.842668
22.260000 28367.724640
22.270000 28365.595179
22.280000 28363.454189
22.290000 28361.301896
22.300000 28359.138288
22.310000 28356.963307
22.320000 28354.776938
22.330000 28352.578359
22.340000 28350.369948
22.350000 28348.150450
22.360000 28345.919232
22.370000 28343.676832
22.380000 28341.423277
22.390000 28339.158551
22.400000 28336.882680
22.410000 28334.595767
22.420000 28332.297840
22.430000 28329.988883
22.440000 28327.668920
22.450000 28325.337815
22.460000 28322.995914
22.470000 28320.643082
22.480000 28318.279343
22.490000 28315.904681
22.500000 28313.519083
22.510000 28311.122771
22.520000 28308.715650
22.530000 28306.297705
22.540000 28303.869080
22.550000 28301.429520
22.560000 28298.979409
22.570000 28296.518611
22.580000 28294.047150
22.590000 28291.565051
22.600000 28289.072338
22.610000 28286.568876
22.620000 28284.055007
22.630000 28281.530596
22.640000 28278.995667
22.650000 28276.450244
22.660000 28273.894351
22.670000 28271.327855
22.680000 28268.750622
22.690000 28266.163934
22.700000 28263.566400
22.710000 28260.958515
22.720000 28258.340301
22.730000 28255.711346
22.740000 28253.072875
22.750000 28250.423782
22.760000 28247.764497
22.770000 28245.094548
22.780000 28242.415322
22.790000 28239.725480
22.800000 28237.025498
22.810000 28234.315400
22.820000 28231.595210
22.830000 28228.864951
22.840000 28226.124645
22.850000 28223.374162
22.860000 28220.613834
22.870000 28217.843530
22.880000 28215.063272
22.890000 28212.272967
22.900000 28209.472987
22.910000 28206.663007
22.920000 28203.843164
22.930000 28201.013445
22.940000 28198.173986
22.950000 28195.324696
22.960000 28192.465636
22.970000 28189.596827
22.980000 28186.718294
22.990000 28183.830058
23.000000 28180.932142
23.010000 28178.024569
23.020000 28175.107247
23.030000 28172.180391
23.040000 28169.243980
23.050000 28166.298003
23.060000 28163.342480
23.070000 28160.377397
23.080000 28157.402890
23.090000 28154.418867
23.100000 28151.425388
23.110000 28148.422474
23.120000 28145.410150
23.130000 28142.388435
23.140000 28139.357353
23.150000 28136.316926
23.160000 28133.267175
23.170000 28130.208123
23.180000 28127.139791
23.190000 28124.062351
23.200000 28120.975242
23.210000 28117.879201
23.220000 28114.774212
23.230000 28111.659700
23.240000 28108.536148
23.250000 28105.403245
23.260000 28102.256728
23.270000 28099.109844
23.280000 28095.950772
23.290000 28092.782061
23.300000 28089.604068
23.310000 28086.417077
23.320000 28083.221110
23.330000 28080.016187
23.340000 28076.802412
23.350000 28073.579634
23.360000 28070.347972
23.370000 28067.107440
23.380000 28063.858059
23.390000 28060.599849
23.400000 28057.332833
23.410000 28054.057030
23.420000 28050.772501
23.430000 28047.479296
23.440000 28044.177263
23.450000 28040.866526
23.460000 28037.547108
23.470000 28034.219029
23.480000 28030.882311
23.490000 28027.536973
23.500000 28024.183038
23.510000 28020.820635
23.520000 28017.449602
23.530000 28014.069996
23.540000 28010.681872
23.550000 28007.285219
23.560000 28003.880166
23.570000 28000.466621
23.580000 27997.044678
23.590000 27993.614395
23.600000 27990.175610
23.610000 27986.728452
23.620000 27983.272942
23.630000 27979.809100
23.640000 27976.336946
23.650000 27972.856645
23.660000 27969.367929
23.670000 27965.870960
23.680000 27962.365761
23.690000 27958.852350
23.700000 27955.330785
23.710000 27951.801120
23.720000 27948.263195
23.730000 27944.717140
23.740000 27941.162973
23.750000 27937.600714
23.760000 27934.030527
23.770000 27930.452144
23.780000 27926.865729
23.790000 27923.271301
23.800000 27919.669023
23.810000 27916.058629
23.820000 27912.440178
23.830000 27908.813999
23.840000 27905.179802
23.850000 27901.537710
23.860000 27897.887782
23.870000 27894.230024
23.880000 27890.564399
23.890000 27886.890920
23.900000 27883.209643
23.910000 27879.520729
23.920000 27875.823913
23.930000 27872.119392
23.940000 27868.407220
23.950000 27864.687240
23.960000 27860.959576
23.970000 27857.224390
23.980000 27853.481418
23.990000 27849.730819
24.000000 27845.972614
24.010000 27842.206961
24.020000 27838.433598
24.030000 27834.652685
24.040000 27830.864380
24.050000 27827.068424
24.060000 27823.264972
24.070000 27819.454149
24.080000 27815.635803
24.090000 27811.809983
24.100000 27807.976780
24.110000 27804.136242
24.120000 27800.288220
24.130000 27796.432834
24.140000 27792.570242
24.150000 27788.700185
24.160000 27784.822820
24.170000 27780.938304
24.180000 27777.046378
24.190000 27773.147199
24.200000 27769.240924
24.210000 27765.327294
24.220000 27761.406466
24.230000 27757.478596
24.240000 27753.543426
24.250000 27749.601113
24.260000 27745.651811
24.270000 27741.695265
24.280000 27737.731664
24.290000 27733.761060
24.300000 27729.783300
24.310000 27725.798607
24.320000 27721.806828
24.330000 27717.808015
24.340000 27713.802357
24.350000 27709.789598
24.360000 27705.769928
24.370000 27701.743397
24.380000 27697.709853
24.390000 27693.669518
24.400000 27689.622239
24.410000 27685.568069
24.420000 27681.507195
24.430000 27677.439362
24.440000 27673.364860
24.450000 27669.283434
24.460000 27665.195272
24.470000 27661.100425
24.480000 27656.998741
24.490000 27652.890475
24.500000 27648.775373
24.510000 27644.653688
24.520000 27640.525270
24.530000 27636.390170
24.540000 27632.248472
24.550000 27628.100227
24.560000 27623.945418
24.570000 27619.783894
24.580000 27615.615942
24.590000 27611.441309
24.600000 27607.260148
24.610000 27603.072541
24.620000 27598.878440
24.630000 27594.677927
24.640000 27590.470820
24.650000 27586.257401
24.660000 27582.037422
24.670000 27577.811165
24.680000 27573.578277
24.690000 27569.339320
24.700000 27565.093832
24.710000 27560.842066
24.720000 27556.583907
24.730000 27552.319504
24.740000 27548.048741
24.750000 27543.771766
24.760000 27539.488465
24.770000 27535.198985
24.780000 27530.903211
24.790000 27526.601292
24.800000 27522.293112
24.810000 27517.978820
24.820000 27513.658299
24.830000 27509.331698
24.840000 27504.998902
24.850000 27500.660058
24.860000 27496.315051
24.870000 27491.964062
24.880000 27487.606595
24.890000 27483.243773
24.900000 27478.874507
24.910000 27474.499355
24.920000 27470.118106
24.930000 27465.730902
24.940000 27461.337733
24.950000 27456.938641
24.960000 27452.533517
24.970000 27448.122602
24.980000 27443.705782
24.990000 27439.282943
25.000000 27434.848312
25.010000 27430.419857
25.020000 27425.979449
25.030000 27421.533340
25.040000 27417.081389
25.050000 27412.623486
25.060000 27408.160093
25.070000 27403.690711
25.080000 27399.215710
25.090000 27394.734789
25.100000 27390.248398
25.110000 27385.756246
25.120000 27381.258283
25.130000 27376.754777
25.140000 27372.245583
25.150000 27367.730687
25.160000 27363.210135
25.170000 27358.684101
25.180000 27354.152474
25.190000 27349.615173
25.200000 27345.072374
25.210000 27340.524057
25.220000 27335.969988
25.230000 27331.410718
25.240000 27326.845819
25.250000 27322.275369
25.260000 27317.699510
25.270000 27313.118163
25.280000 27308.531406
25.290000 27303.939253
25.300000 27299.341562
25.310000 27294.738600
25.320000 27290.130255
25.330000 27285.516449
25.340000 27280.897354
25.350000 27276.272952
25.360000 27271.643103
25.370000 27267.008068
25.380000 27262.367711
25.390000 27257.722045
25.400000 27253.071142
25.410000 27248.415024
25.420000 27243.753546
25.430000 27239.086972
25.440000 27234.415160
25.450000 27229.738131
25.460000 27225.055951
25.470000 27220.368642
25.480000 27215.676155
25.490000 27210.978473
25.500000 27206.275764
25.510000 27201.567951
25.520000 27196.854925
25.530000 27192.136947
25.540000 27187.413876
25.550000 27182.685727
25.560000 27177.952577
25.570000 27173.214437
25.580000 27168.471264
25.590000 27163.723039
25.600000 27158.969929
25.610000 27154.211858
25.620000 27149.448807
25.630000 27144.680762
25.640000 27139.907888
25.650000 27135.130109
25.660000 27130.347317
25.670000 27125.559766
25.680000 27120.767322
25.690000 27115.970088
25.700000 27111.167867
25.710000 27106.360945
25.720000 27101.549214
25.730000 27096.732686
25.740000 27091.911260
25.750000 27087.085186
25.760000 27082.254358
25.770000 27077.418789
25.780000 27072.578467
25.790000 27067.733369
25.800000 27062.883664
25.810000 27058.029273
25.820000 27053.170180
25.830000 27048.306398
25.840000 27043.438004
25.850000 27038.565005
25.860000 27033.687360
25.870000 27028.805080
25.880000 27023.918241
25.890000 27019.026851
25.900000 27014.130898
25.910000 27009.230395
25.920000 27004.325321
25.930000 26999.415697
25.940000 26994.501590
25.950000 26989.583016
25.960000 26984.659956
25.970000 26979.732424
25.980000 26974.800406
25.990000 26969.863881
26.000000 26964.923014
26.010000 26959.977726
26.020000 26955.028006
26.030000 26950.073862
26.040000 26945.113772
26.050000 26940.152535
26.060000 26935.185349
26.070000 26930.213822
26.080000 26925.237966
26.090000 26920.257795
26.100000 26915.273290
26.110000 26910.284470
26.120000 26905.291400
26.130000 26900.294096
26.140000 26895.292509
26.150000 26890.286744
26.160000 26885.276696
26.170000 26880.262404
26.180000 26875.243941
26.190000 26870.221171
26.200000 26865.194524
26.210000 26860.163562
26.220000 26855.128452
26.230000 26850.089204
26.240000 26845.045361
26.250000 26839.998229
26.260000 26834.946729
26.270000 26829.891001
26.280000 26824.831221
26.290000 26819.767409
26.300000 26814.699547
26.310000 26809.627647
26.320000 26804.551721
26.330000 26799.471779
26.340000 26794.387810
26.350000 26789.299884
26.360000 26784.207944
26.370000 26779.112072
26.380000 26774.012248
26.390000 26768.908483
26.400000 26763.800790
26.410000 26758.689152
26.420000 26753.573583
26.430000 26748.454233
26.440000 26743.330894
26.450000 26738.203711
26.460000 26733.072732
26.470000 26727.937850
26.480000 26722.799195
26.490000 26717.656662
26.500000 26712.510350
26.510000 26707.360244
26.520000 26702.206348
26.530000 26697.048683
26.540000 26691.887256
26.550000 26686.722081
26.560000 26681.553169
26.570000 26676.380531
26.580000 26671.204179
26.590000 26666.024125
26.600000 26660.840379
26.610000 26655.652927
26.620000 26650.461866
26.630000 26645.267094
26.640000 26640.068733
26.650000 26634.866682
26.660000 26629.661068
26.670000 26624.451702
26.680000 26619.238966
26.690000 26614.022501
26.700000 26608.802519
26.710000 26603.578751
26.720000 26598.351815
26.730000 26593.121119
26.740000 26587.886951
26.750000 26582.649209
26.760000 26577.408016
26.770000 26572.163272
26.780000 26566.915099
26.790000 26561.663397
26.800000 26556.408289
26.810000 26551.149703
26.820000 26545.887678
26.830000 26540.622196
26.840000 26535.353354
26.850000 26530.081078
26.860000 26524.805407
26.870000 26519.526352
26.880000 26514.243924
26.890000 26508.958137
26.900000 26503.669025
26.910000 26498.376519
26.920000 26493.080738
26.930000 26487.781585
26.940000 26482.479181
26.950000 26477.173504
26.960000 26471.864439
26.970000 26466.552203
26.980000 26461.236680
26.990000 26455.917849
27.000000 26450.595844
27.010000 26445.270576
27.020000 26439.942085
27.030000 26434.610384
27.040000 26429.275481
27.050000 26423.937389
27.060000 26418.596119
27.070000 26413.251682
27.080000 26407.904090
27.090000 26402.553352
27.100000 26397.199479
27.110000 26391.842482
27.120000 26386.482398
27.130000 26381.119211
27.140000 26375.752931
27.150000 26370.383568
27.160000 26365.011108
27.170000 26359.635586
27.180000 26354.257012
27.190000 26348.875398
27.200000 26343.490780
27.210000 26338.103144
27.220000 26332.712497
27.230000 26327.318850
27.240000 26321.922189
27.250000 26316.522549
27.260000 26311.119940
27.270000 26305.714372
27.280000 26300.305885
27.290000 26294.894459
27.300000 26289.480106
27.310000 26284.062835
27.320000 26278.642658
27.330000 26273.219583
27.340000 26267.793620
27.350000 26262.364779
27.360000 26256.933048
27.370000 26251.498459
27.380000 26246.061021
27.390000 26240.620748
27.400000 26235.177674
27.410000 26229.731784
27.420000 26224.283086
27.430000 26218.831590
27.440000 26213.377309
27.450000 26207.920250
27.460000 26202.460423
27.470000 26196.997837
27.480000 26191.532480
27.490000 26186.064383
27.500000 26180.593557
27.510000 26175.120014
27.520000 26169.643787
27.530000 26164.164863
27.540000 26158.683248
27.550000 26153.198954
27.560000 26147.711991
27.570000 26142.222367
27.580000 26136.730092
27.590000 26131.235175
27.600000 26125.737629
27.610000 26120.237459
27.620000 26114.734677
27.630000 26109.229292
27.640000 26103.721315
27.650000 26098.210753
27.660000 26092.697616
27.670000 26087.181914
27.680000 26081.663658
27.690000 26076.142855
27.700000 26070.619516
27.710000 26065.093648
27.720000 26059.565264
27.730000 26054.034370
27.740000 26048.500977
27.750000 26042.965093
27.760000 26037.426705
27.770000 26031.885844
27.780000 26026.342520
27.790000 26020.796743
27.800000 26015.248576
27.810000 26009.697974
27.820000 26004.144946
27.830000 25998.589500
27.840000 25993.031625
27.850000 25987.471349
27.860000 25981.908685
27.870000 25976.343641
27.880000 25970.776227
27.890000 25965.206450
27.900000 25959.634321
27.910000 25954.059848
27.920000 25948.483041
27.930000 25942.903908
27.940000 25937.322458
27.950000 25931.738700
27.960000 25926.152644
27.970000 25920.564298
27.980000 25914.973671
27.990000 25909.380770
28.000000 25903.785608
28.010000 25898.188190
28.020000 25892.588527
28.030000 25886.986626
28.040000 25881.382472
28.050000 25875.776099
28.060000 25870.167515
28.070000 25864.556731
28.080000 25858.943826
28.090000 25853.328739
28.100000 25847.711477
28.110000 25842.092044
28.120000 25836.470407
28.130000 25830.846617
28.140000 25825.220686
28.150000 25819.592622
28.160000 25813.962459
28.170000 25808.330181
28.180000 25802.695795
28.190000 25797.059309
28.200000 25791.420711
28.210000 25785.780030
28.220000 25780.137275
28.230000 25774.492455
28.240000 25768.845580
28.250000 25763.196657
28.260000 25757.545694
28.270000 25751.892699
28.280000 25746.237708
28.290000 25740.580702
28.300000 25734.921690
28.310000 25729.260681
28.320000 25723.597681
28.330000 25717.932699
28.340000 25712.265722
28.350000 25706.596779
28.360000 25700.925879
28.370000 25695.253031
28.380000 25689.578268
28.390000 25683.901573
28.400000 25678.222954
28.410000 25672.542418
28.420000 25666.859953
28.430000 25661.175587
28.440000 25655.489329
28.450000 25649.801184
28.460000 25644.111073
28.470000 25638.419091
28.480000 25632.725249
28.490000 25627.029564
28.500000 25621.332245
28.510000 25615.633099
28.520000 25609.932125
28.530000 25604.229330
28.540000 25598.524629
28.550000 25592.818123
28.560000 25587.109820
28.570000 25581.399730
28.580000 25575.687861
28.590000 25569.974219
28.600000 25564.258814
28.610000 25558.541652
28.620000 25552.822742
28.630000 25547.102092
28.640000 25541.379708
28.650000 25535.655598
28.660000 25529.929749
28.670000 25524.202189
28.680000 25518.472927
28.690000 25512.741972
28.700000 25507.009353
28.710000 25501.275056
28.720000 25495.539088
28.730000 25489.801456
28.740000 25484.062168
28.750000 25478.321232
28.760000 25472.578655
28.770000 25466.834444
28.780000 25461.088609
28.790000 25455.341155
28.800000 25449.592090
28.810000 25443.841420
28.820000 25438.089134
28.830000 25432.335258
28.840000 25426.579801
28.850000 25420.822772
28.860000 25415.064224
28.870000 25409.304118
28.880000 25403.542461
28.890000 25397.779259
28.900000 25392.014499
28.910000 25386.248209
28.920000 25380.480398
28.930000 25374.711071
28.940000 25368.940238
28.950000 25363.167906
28.960000 25357.394080
28.970000 25351.618770
28.980000 25345.841982
28.990000 25340.063723
29.000000 25334.284000
29.010000 25328.502821
29.020000 25322.720194
29.030000 25316.936124
29.040000 25311.150620
29.050000 25305.363687
29.060000 25299.575335
29.070000 25293.785569
29.080000 25287.994396
29.090000 25282.201824
29.100000 25276.407861
29.110000 25270.612512
29.120000 25264.815785
29.130000 25259.017687
29.140000 25253.218226
29.150000 25247.417407
29.160000 25241.615238
29.170000 25235.811725
29.180000 25230.006877
29.190000 25224.200700
29.200000 25218.393200
29.210000 25212.584386
29.220000 25206.774286
29.230000 25200.962884
29.240000 25195.150188
29.250000 25189.336203
29.260000 25183.520915
29.270000 25177.704353
29.280000 25171.886522
29.290000 25166.067431
29.300000 25160.247086
29.310000 25154.425495
29.320000 25148.602662
29.330000 25142.778597
29.340000 25136.953327
29.350000 25131.126838
29.360000 25125.299135
29.370000 25119.470225
29.380000 25113.640093
29.390000 25107.808766
29.400000 25101.976253
29.410000 25096.142558
29.420000 25090.307692
29.430000 25084.471658
29.440000 25078.634463
29.450000 25072.796115
29.460000 25066.956642
29.470000 25061.116030
29.480000 25055.274282
29.490000 25049.431406
29.500000 25043.587388
29.510000 25037.742254
29.520000 25031.896012
29.530000 25026.048668
29.540000 25020.200274
29.550000 25014.350792
29.560000 25008.500183
29.570000 25002.648496
29.580000 24996.795740
29.590000 24990.941920
29.600000 24985.087067
29.610000 24979.231163
29.620000 24973.374215
29.630000 24967.516227
29.640000 24961.657188
29.650000 24955.797122
29.660000 24949.936037
29.670000 24944.073940
29.680000 24938.210859
29.690000 24932.346778
29.700000 24926.481703
29.710000 24920.615638
29.720000 24914.748572
29.730000 24908.880530
29.740000 24903.011518
29.750000 24897.141544
29.760000 24891.270634
29.770000 24885.398775
29.780000 24879.525971
29.790000 24873.652227
29.800000 24867.777531
29.810000 24861.901907
29.820000 24856.025363
29.830000 24850.147906
29.840000 24844.269562
29.850000 24838.390317
29.860000 24832.510176
29.870000 24826.629144
29.880000 24820.747229
29.890000 24814.864436
29.900000 24808.980771
29.910000 24803.096239
29.920000 24797.210849
29.930000 24791.324603
29.940000 24785.437510
29.950000 24779.549573
29.960000 24773.660801
29.970000 24767.771199
29.980000 24761.880771
29.990000 24755.989525
