# Wavelength(micron) Flux(mJy)
0.450000 18.685316
0.460000 24.319048
0.470000 15.470142
0.480000 20.456296
0.490000 27.426547
0.500000 27.369205
0.510000 23.772130
0.520000 22.754608
0.530000 22.075494
0.540000 25.748484
0.550000 29.961025
0.560000 15.510650
0.570000 30.602178
0.580000 32.439536
0.590000 32.574800
0.600000 33.570897
0.610000 33.802549
0.620000 34.300082
0.630000 34.483814
0.640000 33.628058
0.650000 35.204796
0.660000 35.418112
0.670000 35.452460
0.680000 35.509022
0.690000 33.462753
0.700000 36.446554
0.710000 36.449649
0.720000 36.639494
0.730000 35.738987
0.740000 36.425979
0.750000 37.070186
0.760000 37.227278
0.770000 37.480509
0.780000 34.595986
0.790000 37.491320
0.800000 37.008949
0.810000 37.095101
0.820000 37.787148
0.830000 37.671146
0.840000 37.496567
0.850000 24.034823
0.860000 36.339988
0.870000 37.816727
0.880000 37.876707
0.890000 38.003913
0.900000 36.970993
0.910000 37.601957
0.920000 37.819457
0.930000 37.587849
0.940000 36.895870
0.950000 37.611545
0.960000 36.341767
0.970000 37.764139
0.980000 37.275151
0.990000 37.626643
1.000000 37.287979
1.010000 33.805982
1.020000 37.468589
1.030000 36.978374
1.040000 37.249886
1.050000 37.347544
1.060000 36.703481
1.070000 37.025020
1.080000 36.717326
1.090000 35.985880
1.100000 36.621310
1.110000 36.281656
1.120000 32.570108
1.130000 35.883186
1.140000 36.617876
1.150000 36.593294
1.160000 36.452714
1.170000 36.428368
1.180000 36.382482
1.190000 35.592021
1.200000 36.120533
1.210000 35.765312
1.220000 35.051317
1.230000 35.738580
1.240000 35.647701
1.250000 35.475279
1.260000 35.827114
1.270000 35.181468
1.280000 35.215229
1.290000 35.440148
1.300000 35.560845
1.310000 34.918165
1.320000 35.080911
1.330000 35.216522
1.340000 34.777517
1.350000 35.117902
1.360000 35.104711
1.370000 34.856290
1.380000 34.784367
1.390000 34.092987
1.400000 30.148861
1.410000 34.286980
1.420000 34.260981
1.430000 34.494623
1.440000 34.486257
1.450000 34.502863
1.460000 34.510304
1.470000 34.116988
1.480000 34.299446
1.490000 33.843405
1.500000 34.125425
1.510000 32.603549
1.520000 33.057314
1.530000 31.154164
1.540000 31.906569
1.550000 33.019507
1.560000 33.601097
1.570000 32.612745
1.580000 33.483678
1.590000 30.441584
1.600000 33.084306
1.610000 27.588724
1.620000 31.421665
1.630000 32.644211
1.640000 30.856071
1.650000 32.022603
1.660000 31.613573
1.670000 31.696949
1.680000 29.839191
1.690000 30.570192
1.700000 29.808820
1.710000 30.595073
1.720000 30.123527
1.730000 29.897430
1.740000 29.068214
1.750000 29.531476
1.760000 29.109351
1.770000 28.665462
1.780000 28.748690
1.790000 28.588015
1.800000 28.127004
1.810000 27.604965
1.820000 26.882897
1.830000 27.381915
1.840000 26.769811
1.850000 26.986035
1.860000 26.399610
1.870000 26.044144
1.880000 25.997991
1.890000 25.743208
1.900000 26.024994
1.910000 25.812969
1.920000 21.537762
1.930000 25.351173
1.940000 23.363345
1.950000 23.266201
1.960000 24.663963
1.970000 24.589360
1.980000 24.203914
1.990000 24.125090
2.000000 23.937331
2.010000 23.651328
2.020000 23.541306
2.030000 23.053656
2.040000 23.235059
2.050000 23.039215
2.060000 22.717057
2.070000 22.553793
2.080000 22.421673
2.090000 22.262599
2.100000 22.076472
2.110000 20.012802
2.120000 21.246986
2.130000 20.607207
2.140000 21.464016
2.150000 21.311995
2.160000 20.935355
2.170000 20.585729
2.180000 20.723647
2.190000 20.151346
2.200000 20.155470
2.210000 20.254776
2.220000 20.152095
2.230000 20.021085
2.240000 19.819025
2.250000 19.061573
2.260000 19.578870
2.270000 19.432448
2.280000 19.076016
2.290000 19.143335
2.300000 19.025091
2.310000 18.699217
2.320000 18.654297
2.330000 18.630757
2.340000 18.428049
2.350000 18.366194
2.360000 18.050146
2.370000 17.726112
2.380000 17.943818
2.390000 17.771302
2.400000 17.470238
2.410000 16.412855
2.420000 17.010708
2.430000 17.282211
2.440000 17.132523
2.450000 17.051351
2.460000 16.956493
2.470000 15.824436
2.480000 16.538309
2.490000 16.534356
2.500000 16.191888
2.510000 16.120426
2.520000 16.120127
2.530000 16.097692
2.540000 15.793254
2.550000 15.622820
2.560000 15.639771
2.570000 15.554908
2.580000 15.519108
2.590000 15.523089
2.600000 15.157741
2.610000 15.082520
2.620000 14.946211
2.630000 14.860742
2.640000 11.105111
2.650000 14.798836
2.660000 14.776193
2.670000 14.631388
2.680000 14.515595
2.690000 14.434629
2.700000 14.367746
2.710000 14.364285
2.720000 14.137568
2.730000 14.197397
2.740000 13.991934
2.750000 13.977577
2.760000 13.570842
2.770000 13.696295
2.780000 13.730911
2.790000 13.633752
2.800000 13.555902
2.810000 13.491068
2.820000 13.284211
2.830000 13.253308
2.840000 13.158847
2.850000 13.131748
2.860000 12.819739
2.870000 12.216600
2.880000 12.828493
2.890000 12.811138
2.900000 12.754903
2.910000 12.649696
2.920000 12.600352
2.930000 12.454717
2.940000 12.406742
2.950000 12.364806
2.960000 12.237101
2.970000 12.109921
2.980000 12.142720
2.990000 12.044751
3.000000 11.706122
3.010000 11.892323
3.020000 11.835342
3.030000 11.769790
3.040000 11.176250
3.050000 11.591981
3.060000 11.596468
3.070000 11.479173
3.080000 11.422114
3.090000 11.387403
3.100000 11.294638
3.110000 11.252928
3.120000 11.192215
3.130000 11.084636
3.140000 10.908434
3.150000 10.992739
3.160000 10.852804
3.170000 10.015975
3.180000 10.708093
3.190000 10.751395
3.200000 10.662153
3.210000 10.550591
3.220000 10.577150
3.230000 10.497032
3.240000 10.430397
3.250000 10.390828
3.260000 10.335194
3.270000 10.277519
3.280000 10.180056
3.290000 10.137663
3.300000 9.980382
3.310000 10.040794
3.320000 7.921849
3.330000 9.928226
3.340000 9.765187
3.350000 9.827188
3.360000 9.784371
3.370000 9.512708
3.380000 9.676468
3.390000 9.612969
3.400000 9.522000
3.410000 9.512978
3.420000 9.452257
3.430000 9.429131
3.440000 9.290976
3.450000 9.310848
3.460000 9.272527
3.470000 9.207629
3.480000 9.175209
3.490000 9.131335
3.500000 9.078614
3.510000 8.927956
3.520000 8.950693
3.530000 8.936123
3.540000 8.786403
3.550000 8.858091
3.560000 8.772460
3.570000 8.746127
3.580000 8.609603
3.590000 8.663608
3.600000 8.639193
3.610000 8.585779
3.620000 8.540386
3.630000 8.438502
3.640000 8.446134
3.650000 8.403674
3.660000 8.260472
3.670000 8.318819
3.680000 8.236435
3.690000 8.214315
3.700000 8.201557
3.710000 8.167781
3.720000 8.080314
3.730000 8.031562
3.740000 7.645036
3.750000 7.963486
3.760000 7.921959
3.770000 7.932197
3.780000 7.853527
3.790000 7.811212
3.800000 7.787329
3.810000 7.767046
3.820000 7.687067
3.830000 7.696282
3.840000 7.656043
3.850000 7.601124
3.860000 7.566191
3.870000 7.546868
3.880000 7.507283
3.890000 7.475133
3.900000 7.435203
3.910000 7.372620
3.920000 7.212310
3.930000 7.333482
3.940000 7.307272
3.950000 7.125486
3.960000 7.232256
3.970000 7.196283
3.980000 7.166802
3.990000 7.119556
4.000000 7.077853
4.010000 7.062466
4.020000 7.019975
4.030000 7.001175
4.040000 6.975553
4.050000 6.855590
4.060000 6.901373
4.070000 6.569504
4.080000 6.843341
4.090000 6.812869
4.100000 6.749130
4.110000 6.731172
4.120000 6.714426
4.130000 6.695508
4.140000 6.644172
4.150000 6.602469
4.160000 6.593838
4.170000 6.542593
4.180000 6.508500
4.190000 6.469959
4.200000 6.464027
4.210000 6.428714
4.220000 6.434404
4.230000 6.390932
4.240000 6.376982
4.250000 6.326927
4.260000 6.316549
4.270000 6.303214
4.280000 6.262835
4.290000 6.246343
4.300000 5.818049
4.310000 6.136143
4.320000 6.156613
4.330000 6.135103
4.340000 6.092211
4.350000 6.076155
4.360000 6.051408
4.370000 6.008586
4.380000 5.972698
4.390000 5.519335
4.400000 5.770634
4.410000 5.823341
4.420000 5.882877
4.430000 5.032718
4.440000 5.738914
4.450000 5.797570
4.460000 5.801672
4.470000 5.774289
4.480000 5.731842
4.490000 5.643226
4.500000 5.695042
4.510000 5.690723
4.520000 5.641026
4.530000 5.624011
4.540000 5.530644
4.550000 5.440452
4.560000 5.548635
4.570000 5.473790
4.580000 5.280598
4.590000 4.482358
4.600000 4.867201
4.610000 5.155688
4.620000 4.596296
4.630000 4.835886
4.640000 5.371955
4.650000 5.246845
4.660000 4.719232
4.670000 5.291161
4.680000 5.295701
4.690000 5.225177
4.700000 4.312615
4.710000 5.236283
4.720000 5.127846
4.730000 5.174633
4.740000 4.776105
4.750000 5.049262
4.760000 5.129207
4.770000 4.614089
4.780000 4.792313
4.790000 5.077684
4.800000 5.013427
4.810000 4.179015
4.820000 4.998580
4.830000 4.993269
4.840000 4.266412
4.850000 4.838792
4.860000 4.737280
4.870000 4.846028
4.880000 4.899832
4.890000 4.499580
4.900000 4.835679
4.910000 4.853404
4.920000 4.608727
4.930000 4.811168
4.940000 4.573530
4.950000 4.776325
4.960000 4.710054
4.970000 4.609121
4.980000 4.698574
4.990000 4.563285
5.000000 4.526003
5.010000 4.658802
5.020000 4.639258
5.030000 4.595268
5.040000 4.596869
5.050000 4.295143
5.060000 4.553414
5.070000 4.551385
5.080000 4.361857
5.090000 4.523554
5.100000 4.503688
5.110000 4.480856
5.120000 4.062917
5.130000 4.407642
5.140000 4.409668
5.150000 4.428414
5.160000 4.400898
5.170000 4.398900
5.180000 4.300747
5.190000 4.353443
5.200000 4.298214
5.210000 4.237399
5.220000 4.241244
5.230000 4.306623
5.240000 4.258887
5.250000 4.185216
5.260000 4.209348
5.270000 4.185836
5.280000 4.225726
5.290000 4.207701
5.300000 4.122843
5.310000 3.357371
5.320000 3.959216
5.330000 4.136071
5.340000 4.111175
5.350000 4.065291
5.360000 4.071133
5.370000 4.032721
5.380000 4.033692
5.390000 3.805484
5.400000 4.052014
5.410000 3.310811
5.420000 4.021449
5.430000 4.008517
5.440000 3.995598
5.450000 3.971330
5.460000 3.967517
5.470000 3.956933
5.480000 3.881018
5.490000 3.931232
5.500000 3.461834
5.510000 3.898852
5.520000 3.868238
5.530000 3.798335
5.540000 3.738771
5.550000 3.385814
5.560000 3.832959
5.570000 3.818083
5.580000 3.807610
5.590000 3.792788
5.600000 3.780155
5.610000 3.769925
5.620000 3.748493
5.630000 3.742401
5.640000 3.680044
5.650000 3.717337
5.660000 3.704814
5.670000 3.696576
5.680000 3.679851
5.690000 3.652659
5.700000 3.598961
5.710000 3.638400
5.720000 3.630158
5.730000 3.434735
5.740000 3.607512
5.750000 3.597238
5.760000 3.589042
5.770000 3.570555
5.780000 3.564423
5.790000 3.535826
5.800000 3.531746
5.810000 3.439728
5.820000 3.513415
5.830000 3.489320
5.840000 3.302967
5.850000 3.461183
5.860000 3.467892
5.870000 3.458675
5.880000 3.450549
5.890000 3.401067
5.900000 3.180305
5.910000 3.379175
5.920000 3.402334
5.930000 3.394243
5.940000 3.384202
5.950000 3.258180
5.960000 3.250257
5.970000 3.346433
5.980000 3.338381
5.990000 3.330329
6.000000 3.312759
6.010000 3.306606
6.020000 3.287205
6.030000 3.290547
6.040000 3.084866
6.050000 3.000395
6.060000 3.245856
6.070000 3.249088
6.080000 3.235495
6.090000 3.220091
6.100000 2.915269
6.110000 3.094619
6.120000 3.196218
6.130000 3.177274
6.140000 3.173002
6.150000 3.165073
6.160000 3.155331
6.170000 3.147418
6.180000 3.134083
6.190000 3.120791
6.200000 3.118293
6.210000 3.103250
6.220000 3.068819
6.230000 3.087519
6.240000 3.079660
6.250000 3.068280
6.260000 3.053400
6.270000 3.049079
6.280000 3.039504
6.290000 3.028222
6.300000 3.025622
6.310000 3.009461
6.320000 2.997911
6.330000 2.995304
6.340000 2.985809
6.350000 2.979758
6.360000 2.944822
6.370000 2.954078
6.380000 2.949680
6.390000 2.936873
6.400000 2.934226
6.410000 2.926507
6.420000 2.913762
6.430000 2.911089
6.440000 2.900049
6.450000 2.887377
6.460000 2.876399
6.470000 2.872054
6.480000 2.861048
6.490000 2.858400
6.500000 2.845842
6.510000 2.836583
6.520000 2.833862
6.530000 2.821369
6.540000 2.813773
6.550000 2.785269
6.560000 2.788963
6.570000 2.791029
6.580000 2.778663
6.590000 2.774309
6.600000 2.743002
6.610000 2.759224
6.620000 2.751689
6.630000 2.744171
6.640000 2.727220
6.650000 2.724437
6.660000 2.716952
6.670000 2.709475
6.680000 2.702007
6.690000 2.694547
6.700000 2.680916
6.710000 2.679653
6.720000 2.653853
6.730000 2.655608
6.740000 2.657378
6.750000 2.631742
6.760000 2.633470
6.770000 2.633670
6.780000 2.621760
6.790000 2.620433
6.800000 2.613072
6.810000 2.605720
6.820000 2.598378
6.830000 2.589557
6.840000 2.583722
6.850000 2.576408
6.860000 2.569105
6.870000 2.555953
6.880000 2.557469
6.890000 2.547254
6.900000 2.542914
6.910000 2.531280
6.920000 2.528400
6.930000 2.516811
6.940000 2.513926
6.950000 2.506705
6.960000 2.495180
6.970000 2.492293
6.980000 2.485103
6.990000 2.477924
7.000000 2.470755
7.010000 2.463597
7.020000 2.457863
7.030000 2.449313
7.040000 2.443592
7.050000 2.436477
7.060000 2.429365
7.070000 2.426456
7.080000 2.415183
7.090000 2.412271
7.100000 2.405195
7.110000 2.398130
7.120000 2.391077
7.130000 2.384035
7.140000 2.381116
7.150000 2.371353
7.160000 2.365700
7.170000 2.357341
7.180000 2.351703
7.190000 2.344722
7.200000 2.343142
7.210000 2.336168
7.220000 2.329206
7.230000 2.322256
7.240000 2.315318
7.250000 2.309721
7.260000 2.302806
7.270000 2.299865
7.280000 2.289006
7.290000 2.286065
7.300000 2.279183
7.310000 2.269700
7.320000 2.270679
7.330000 2.263818
7.340000 2.250482
7.350000 2.250133
7.360000 2.243309
7.370000 2.237785
7.380000 2.229699
7.390000 2.217808
7.400000 2.219969
7.410000 2.210649
7.420000 2.211522
7.430000 2.203491
7.440000 2.153202
7.450000 2.192533
7.460000 2.157090
7.470000 2.179088
7.480000 2.177393
7.490000 2.169440
7.500000 2.144178
7.510000 2.153591
7.520000 2.146939
7.530000 2.148936
7.540000 2.142280
7.550000 2.135637
7.560000 2.130236
7.570000 2.127283
7.580000 2.120665
7.590000 2.114059
7.600000 2.112325
7.610000 2.104522
7.620000 2.099150
7.630000 2.092583
7.640000 2.089634
7.650000 2.080685
7.660000 2.065821
7.670000 2.066447
7.680000 2.055209
7.690000 2.062938
7.700000 2.052889
7.710000 2.048768
7.720000 2.048180
7.730000 2.034664
7.740000 2.031730
7.750000 2.033466
7.760000 2.027015
7.770000 2.020578
7.780000 2.018797
7.790000 2.012373
7.800000 2.005962
7.810000 2.004175
7.820000 1.997777
7.830000 1.982266
7.840000 1.981603
7.850000 1.983229
7.860000 1.976872
7.870000 1.971664
7.880000 1.968729
7.890000 1.962400
7.900000 1.960594
7.910000 1.954279
7.920000 1.947977
7.930000 1.946166
7.940000 1.938762
7.950000 1.933605
7.960000 1.931789
7.970000 1.925530
7.980000 1.919284
7.990000 1.913054
8.000000 1.911233
8.010000 1.905016
8.020000 1.903191
8.030000 1.896988
8.040000 1.890800
8.050000 1.888971
8.060000 1.880632
8.070000 1.869220
8.080000 1.874806
8.090000 1.871894
8.100000 1.865750
8.110000 1.860695
8.120000 1.857785
8.130000 1.852741
8.140000 1.846641
8.150000 1.841614
8.160000 1.836598
8.170000 1.836867
8.180000 1.829743
8.190000 1.825792
8.200000 1.818710
8.210000 1.817899
8.220000 1.815002
8.230000 1.808978
8.240000 1.806084
8.250000 1.801115
8.260000 1.798223
8.270000 1.793265
8.280000 1.787287
8.290000 1.785429
8.300000 1.779466
8.310000 1.777606
8.320000 1.768605
8.330000 1.769797
8.340000 1.761838
8.350000 1.758962
8.360000 1.756087
8.370000 1.751194
8.380000 1.748323
8.390000 1.743441
8.400000 1.739570
8.410000 1.734705
8.420000 1.732837
8.430000 1.726986
8.440000 1.725117
8.450000 1.719281
8.460000 1.716422
8.470000 1.708639
8.480000 1.708737
8.490000 1.703919
8.500000 1.698132
8.510000 1.696261
8.520000 1.690491
8.530000 1.688619
8.540000 1.685773
8.550000 1.681960
8.560000 1.676222
8.570000 1.626134
8.580000 1.669584
8.590000 1.666747
8.600000 1.661998
8.610000 1.659166
8.620000 1.654429
8.630000 1.651601
8.640000 1.646877
8.650000 1.645000
8.660000 1.639341
8.670000 1.636521
8.680000 1.631823
8.690000 1.629946
8.700000 1.624322
8.710000 1.622445
8.720000 1.617769
8.730000 1.614961
8.740000 1.610298
8.750000 1.607495
8.760000 1.599159
8.770000 1.600047
8.780000 1.598169
8.790000 1.592617
8.800000 1.590739
8.810000 1.583381
8.820000 1.583327
8.830000 1.580538
8.840000 1.575934
8.850000 1.570436
8.860000 1.568560
8.870000 1.547001
8.880000 1.561203
8.890000 1.558429
8.900000 1.555656
8.910000 1.551097
8.920000 1.548329
8.930000 1.546452
8.940000 1.541021
8.950000 1.538262
8.960000 1.533732
8.970000 1.531858
8.980000 1.529101
8.990000 1.519334
9.000000 1.522715
9.010000 1.517341
9.020000 1.515468
9.030000 1.510981
9.040000 1.507372
9.050000 1.506367
9.060000 1.501032
9.070000 1.499161
9.080000 1.497288
9.090000 1.482659
9.100000 1.490103
9.110000 1.484808
9.120000 1.482085
9.130000 1.479364
9.140000 1.477495
9.150000 1.474775
9.160000 1.471209
9.170000 1.467649
9.180000 1.464093
9.190000 1.461385
9.200000 1.459517
9.210000 1.455971
9.220000 1.453267
9.230000 1.448895
9.240000 1.447030
9.250000 1.442670
9.260000 1.439977
9.270000 1.437287
9.280000 1.432945
9.290000 1.431084
9.300000 1.429221
9.310000 1.424895
9.320000 1.422215
9.330000 1.420355
9.340000 1.415231
9.350000 1.413373
9.360000 1.410702
9.370000 1.407222
9.380000 1.404557
9.390000 1.395454
9.400000 1.397621
9.410000 1.395767
9.420000 1.393109
9.430000 1.389654
9.440000 1.387004
9.450000 1.385151
9.460000 1.380117
9.470000 1.375889
9.480000 1.375625
9.490000 1.371406
9.500000 1.367198
9.510000 1.367712
9.520000 1.362723
9.530000 1.361662
9.540000 1.359034
9.550000 1.357189
9.560000 1.354563
9.570000 1.350385
9.580000 1.348542
9.590000 1.346700
9.600000 1.341764
9.610000 1.339925
9.620000 1.338085
9.630000 1.333939
9.640000 1.331336
9.650000 1.329500
9.660000 1.326898
9.670000 1.322777
9.680000 1.320944
9.690000 1.319110
9.700000 1.316518
9.710000 1.312418
9.720000 1.309833
9.730000 1.306499
9.740000 1.303922
9.750000 1.295370
9.760000 1.300269
9.770000 1.296826
9.780000 1.293634
9.790000 1.289582
9.800000 1.287764
9.810000 1.288165
9.820000 1.283384
9.830000 1.281565
9.840000 1.279746
9.850000 1.277927
9.860000 1.275373
9.870000 1.272090
9.880000 1.269543
9.890000 1.265540
9.900000 1.265184
9.910000 1.261191
9.920000 1.259380
9.930000 1.257570
9.940000 1.255036
9.950000 1.251785
9.960000 1.249258
9.970000 1.247452
9.980000 1.244929
9.990000 1.241694
10.000000 1.239178
10.010000 1.237376
10.020000 1.235575
10.030000 1.231644
10.040000 1.229139
10.050000 1.228049
10.060000 1.225546
10.070000 1.191084
10.080000 1.217042
10.090000 1.211764
10.100000 1.215560
10.110000 1.213769
10.120000 1.211280
10.130000 1.210187
10.140000 1.207701
10.150000 1.204524
10.160000 1.202046
10.170000 1.200260
10.180000 1.198475
10.190000 1.196691
10.200000 1.194218
10.210000 1.190378
10.220000 1.188599
10.230000 1.179410
10.240000 1.184359
10.250000 1.180542
10.260000 1.178768
10.270000 1.176995
10.280000 1.175222
10.290000 1.173449
10.300000 1.171003
10.310000 1.167887
10.320000 1.164777
10.330000 1.163682
10.340000 1.161916
10.350000 1.160150
10.360000 1.155721
10.370000 1.154625
10.380000 1.142314
10.390000 1.151104
10.400000 1.148683
10.410000 1.146925
10.420000 1.144508
10.430000 1.143304
10.440000 1.140341
10.450000 1.138587
10.460000 1.136834
10.470000 1.126627
10.480000 1.131374
10.490000 1.128976
10.500000 1.127229
10.510000 1.125483
10.520000 1.123738
10.530000 1.121993
10.540000 1.120250
10.550000 1.117862
10.560000 1.114837
10.570000 1.112458
10.580000 1.110721
10.590000 1.108985
10.600000 1.107249
10.610000 1.104878
10.620000 1.103780
10.630000 1.101412
10.640000 1.098416
10.650000 1.096056
10.660000 1.094329
10.670000 1.092603
10.680000 1.090878
10.690000 1.088526
10.700000 1.078089
10.710000 1.085082
10.720000 1.083985
10.730000 1.081640
10.740000 1.078678
10.750000 1.076343
10.760000 1.075246
10.770000 1.072914
10.780000 1.071201
10.790000 1.069489
10.800000 1.067778
10.810000 1.064842
10.820000 1.063747
10.830000 1.061428
10.840000 1.059722
10.850000 1.058018
10.860000 1.056314
10.870000 1.054612
10.880000 1.037898
10.890000 1.051210
10.900000 1.048906
10.910000 1.046003
10.920000 1.043708
10.930000 1.042615
10.940000 1.040323
10.950000 1.038632
10.960000 1.036943
10.970000 1.035850
10.980000 1.032971
10.990000 1.032473
11.000000 1.029008
11.010000 1.027326
11.020000 1.026235
11.030000 1.023964
11.040000 1.017591
11.050000 1.020018
11.060000 1.019515
11.070000 1.016667
11.080000 1.016162
11.090000 1.013320
11.100000 1.011066
11.110000 1.009977
11.120000 1.008888
11.130000 1.006060
11.140000 1.004394
11.150000 1.002728
11.160000 1.000488
11.170000 0.999356
11.180000 0.997165
11.190000 0.996652
11.200000 0.993847
11.210000 0.991619
11.220000 0.990533
11.230000 0.988310
11.240000 0.987225
11.250000 0.985005
11.260000 0.983355
11.270000 0.981706
11.280000 0.980058
11.290000 0.977848
11.300000 0.976766
11.310000 0.972319
11.320000 0.958205
11.330000 0.971277
11.340000 0.970196
11.350000 0.968557
11.360000 0.966919
11.370000 0.965283
11.380000 0.964202
11.390000 0.961459
11.400000 0.960933
11.410000 0.958197
11.420000 0.957669
11.430000 0.954940
11.440000 0.954411
11.450000 0.951688
11.460000 0.949517
11.470000 0.948441
11.480000 0.947910
11.490000 0.945200
11.500000 0.943038
11.510000 0.941964
11.520000 0.941431
11.530000 0.938733
11.540000 0.938199
11.550000 0.935508
11.560000 0.933360
11.570000 0.932288
11.580000 0.931752
11.590000 0.929074
11.600000 0.928537
11.610000 0.927466
11.620000 0.925328
11.630000 0.924258
11.640000 0.922124
11.650000 0.921055
11.660000 0.918926
11.670000 0.917858
11.680000 0.916261
11.690000 0.914666
11.700000 0.913073
11.710000 0.911481
11.720000 0.909890
11.730000 0.908301
11.740000 0.906713
11.750000 0.905647
11.760000 0.903021
11.770000 0.902477
11.780000 0.901414
11.790000 0.899313
11.800000 0.897735
11.810000 0.896155
11.820000 0.895094
11.830000 0.893518
11.840000 0.891943
11.850000 0.890370
11.860000 0.888798
11.870000 0.887228
11.880000 0.885659
11.890000 0.884092
11.900000 0.883034
11.910000 0.880962
11.920000 0.879905
11.930000 0.877838
11.940000 0.876783
11.950000 0.876232
11.960000 0.873667
11.970000 0.873116
11.980000 0.872062
11.990000 0.870005
12.000000 0.868953
12.010000 0.867400
12.020000 0.865850
12.030000 0.864301
12.040000 0.862753
12.050000 0.861207
12.060000 0.860158
12.070000 0.857626
12.080000 0.855597
12.090000 0.855040
12.100000 0.853502
12.110000 0.853438
12.120000 0.836394
12.130000 0.850364
12.140000 0.847854
12.150000 0.847786
12.160000 0.846254
12.170000 0.844724
12.180000 0.843681
12.190000 0.841668
12.200000 0.840627
12.210000 0.840069
12.220000 0.837579
12.230000 0.837021
12.240000 0.835981
12.250000 0.834460
12.260000 0.830073
12.270000 0.831424
12.280000 0.830386
12.290000 0.828395
12.300000 0.827358
12.310000 0.826798
12.320000 0.824337
12.330000 0.823777
12.340000 0.822742
12.350000 0.813715
12.360000 0.818315
12.370000 0.809339
12.380000 0.816723
12.390000 0.814753
12.400000 0.814192
12.410000 0.812227
12.420000 0.812600
12.430000 0.810636
12.440000 0.809607
12.450000 0.808113
12.460000 0.806621
12.470000 0.805131
12.480000 0.804105
12.490000 0.803542
12.500000 0.802516
12.510000 0.800568
12.520000 0.799544
12.530000 0.798060
12.540000 0.796579
12.550000 0.795099
12.560000 0.794077
12.570000 0.793513
12.580000 0.792492
12.590000 0.790560
12.600000 0.789541
12.610000 0.788068
12.620000 0.787050
12.630000 0.785128
12.640000 0.784111
12.650000 0.783546
12.660000 0.782530
12.670000 0.780615
12.680000 0.779600
12.690000 0.778138
12.700000 0.777125
12.710000 0.776559
12.720000 0.775546
12.730000 0.773642
12.740000 0.772632
12.750000 0.771177
12.760000 0.770167
12.770000 0.768273
12.780000 0.767265
12.790000 0.766698
12.800000 0.744909
12.810000 0.763804
12.820000 0.762798
12.830000 0.761354
12.840000 0.759038
12.850000 0.759783
12.860000 0.758779
12.870000 0.757340
12.880000 0.755902
12.890000 0.754466
12.900000 0.753465
12.910000 0.752898
12.920000 0.751897
12.930000 0.750033
12.940000 0.749035
12.950000 0.747607
12.960000 0.746609
12.970000 0.746042
12.980000 0.745046
12.990000 0.743621
13.000000 0.742199
13.010000 0.740778
13.020000 0.739785
13.030000 0.739218
13.040000 0.738225
13.050000 0.736808
13.060000 0.735817
13.070000 0.703203
13.080000 0.732991
13.090000 0.732424
13.100000 0.731436
13.110000 0.730027
13.120000 0.729040
13.130000 0.728099
13.140000 0.726648
13.150000 0.725663
13.160000 0.725096
13.170000 0.724111
13.180000 0.722711
13.190000 0.721727
13.200000 0.719915
13.210000 0.718934
13.220000 0.718367
13.230000 0.717387
13.240000 0.715978
13.250000 0.713785
13.260000 0.714037
13.270000 0.712649
13.280000 0.711672
13.290000 0.711104
13.300000 0.710128
13.310000 0.708745
13.320000 0.707363
13.330000 0.705982
13.340000 0.706229
13.350000 0.704849
13.360000 0.703472
13.370000 0.702096
13.380000 0.701125
13.390000 0.700559
13.400000 0.699589
13.410000 0.698218
13.420000 0.697250
13.430000 0.696683
13.440000 0.695716
13.450000 0.694350
13.460000 0.693384
13.470000 0.692817
13.480000 0.691852
13.490000 0.690490
13.500000 0.689527
13.510000 0.688960
13.520000 0.686810
13.530000 0.686245
13.540000 0.685285
13.550000 0.683931
13.560000 0.682972
13.570000 0.682406
13.580000 0.681449
13.590000 0.680100
13.600000 0.679143
13.610000 0.678578
13.620000 0.677622
13.630000 0.676278
13.640000 0.674936
13.650000 0.674759
13.660000 0.673806
13.670000 0.672466
13.680000 0.671515
13.690000 0.670950
13.700000 0.670000
13.710000 0.668665
13.720000 0.667716
13.730000 0.667152
13.740000 0.666204
13.750000 0.664873
13.760000 0.663927
13.770000 0.663363
13.780000 0.662418
13.790000 0.658821
13.800000 0.660148
13.810000 0.659585
13.820000 0.658642
13.830000 0.657322
13.840000 0.656380
13.850000 0.655817
13.860000 0.654877
13.870000 0.653562
13.880000 0.652623
13.890000 0.652061
13.900000 0.651123
13.910000 0.649812
13.920000 0.648876
13.930000 0.648314
13.940000 0.647380
13.950000 0.646074
13.960000 0.645140
13.970000 0.644579
13.980000 0.643647
13.990000 0.639031
14.000000 0.641416
14.010000 0.640855
14.020000 0.640249
14.030000 0.638629
14.040000 0.637702
14.050000 0.637142
14.060000 0.636582
14.070000 0.636021
14.080000 0.635095
14.090000 0.633805
14.100000 0.632880
14.110000 0.632321
14.120000 0.631398
14.130000 0.630112
14.140000 0.629191
14.150000 0.628632
14.160000 0.627712
14.170000 0.626431
14.180000 0.625512
14.190000 0.624954
14.200000 0.624037
14.210000 0.622762
14.220000 0.620435
14.230000 0.621646
14.240000 0.620731
14.250000 0.620173
14.260000 0.619259
14.270000 0.617990
14.280000 0.616723
14.290000 0.616521
14.300000 0.615610
14.310000 0.614346
14.320000 0.613436
14.330000 0.612881
14.340000 0.612325
14.350000 0.610713
14.360000 0.610861
14.370000 0.608552
14.380000 0.608697
14.390000 0.608142
14.400000 0.607238
14.410000 0.605985
14.420000 0.605082
14.430000 0.604528
14.440000 0.603973
14.450000 0.602378
14.460000 0.602518
14.470000 0.601272
14.480000 0.600372
14.490000 0.599819
14.500000 0.598921
14.510000 0.597680
14.520000 0.597815
14.530000 0.596231
14.540000 0.595679
14.550000 0.595127
14.560000 0.594232
14.570000 0.592997
14.580000 0.592105
14.590000 0.591554
14.600000 0.591002
14.610000 0.590451
14.620000 0.589560
14.630000 0.588332
14.640000 0.587443
14.650000 0.586893
14.660000 0.586005
14.670000 0.585792
14.680000 0.584906
14.690000 0.583683
14.700000 0.582798
14.710000 0.582249
14.720000 0.581365
14.730000 0.581151
14.740000 0.580268
14.750000 0.579052
14.760000 0.578171
14.770000 0.577623
14.780000 0.576743
14.790000 0.575533
14.800000 0.575648
14.810000 0.574108
14.820000 0.573561
14.830000 0.573015
14.840000 0.572139
14.850000 0.571921
14.860000 0.571046
14.870000 0.569843
14.880000 0.568970
14.890000 0.568425
14.900000 0.567879
14.910000 0.567334
14.920000 0.566463
14.930000 0.565266
14.940000 0.564397
14.950000 0.563853
14.960000 0.563309
14.970000 0.562765
14.980000 0.561898
14.990000 0.560708
15.000000 0.559843
15.010000 0.559622
15.020000 0.558757
15.030000 0.558215
15.040000 0.557352
15.050000 0.556169
15.060000 0.556267
15.070000 0.555086
15.080000 0.554225
15.090000 0.553684
15.100000 0.553143
15.110000 0.552602
15.120000 0.551743
15.130000 0.550569
15.140000 0.549712
15.150000 0.549172
15.160000 0.548633
15.170000 0.548093
15.180000 0.547239
15.190000 0.546071
15.200000 0.545219
15.210000 0.544994
15.220000 0.544143
15.230000 0.523465
15.240000 0.543067
15.250000 0.542529
15.260000 0.541680
15.270000 0.540209
15.280000 0.540605
15.290000 0.539447
15.300000 0.538600
15.310000 0.538064
15.320000 0.537528
15.330000 0.536992
15.340000 0.536148
15.350000 0.534996
15.360000 0.535077
15.370000 0.533926
15.380000 0.533085
15.390000 0.532550
15.400000 0.532016
15.410000 0.531177
15.420000 0.530948
15.430000 0.530109
15.440000 0.528967
15.450000 0.528129
15.460000 0.527901
15.470000 0.527065
15.480000 0.526533
15.490000 0.526001
15.500000 0.525469
15.510000 0.524635
15.520000 0.523500
15.530000 0.523572
15.540000 0.522439
15.550000 0.521608
15.560000 0.521078
15.570000 0.520548
15.580000 0.520018
15.590000 0.519189
15.600000 0.518959
15.610000 0.518131
15.620000 0.517006
15.630000 0.516180
15.640000 0.515949
15.650000 0.515124
15.660000 0.514597
15.670000 0.514069
15.680000 0.513542
15.690000 0.512719
15.700000 0.512487
15.710000 0.511665
15.720000 0.510550
15.730000 0.509731
15.740000 0.509499
15.750000 0.508680
15.760000 0.508155
15.770000 0.507629
15.780000 0.507104
15.790000 0.506288
15.800000 0.506055
15.810000 0.505240
15.820000 0.504135
15.830000 0.504191
15.840000 0.503088
15.850000 0.502275
15.860000 0.501753
15.870000 0.501230
15.880000 0.500708
15.890000 0.500186
15.900000 0.499663
15.910000 0.498855
15.920000 0.498620
15.930000 0.497812
15.940000 0.496718
15.950000 0.495912
15.960000 0.495678
15.970000 0.494872
15.980000 0.491800
15.990000 0.493833
16.000000 0.493314
16.010000 0.492795
16.020000 0.490579
16.030000 0.491474
16.040000 0.491238
16.050000 0.490438
16.060000 0.489356
16.070000 0.489402
16.080000 0.488321
16.090000 0.487523
16.100000 0.487288
16.110000 0.486491
16.120000 0.485975
16.130000 0.485459
16.140000 0.484943
16.150000 0.484427
16.160000 0.483912
16.170000 0.483118
16.180000 0.482881
16.190000 0.482089
16.200000 0.480744
16.210000 0.479402
16.220000 0.479993
16.230000 0.479204
16.240000 0.478967
16.250000 0.478179
16.260000 0.477666
16.270000 0.477154
16.280000 0.476642
16.290000 0.476130
16.300000 0.475618
16.310000 0.475107
16.320000 0.474595
16.330000 0.473812
16.340000 0.473574
16.350000 0.472791
16.360000 0.471737
16.370000 0.471771
16.380000 0.470719
16.390000 0.469939
16.400000 0.469701
16.410000 0.468922
16.420000 0.468684
16.430000 0.467906
16.440000 0.467398
16.450000 0.466891
16.460000 0.466383
16.470000 0.465876
16.480000 0.465369
16.490000 0.464863
16.500000 0.464356
16.510000 0.463583
16.520000 0.463344
16.530000 0.462572
16.540000 0.462333
16.550000 0.461562
16.560000 0.460526
16.570000 0.460552
16.580000 0.459518
16.590000 0.459543
16.600000 0.458511
16.610000 0.457744
16.620000 0.457505
16.630000 0.456739
16.640000 0.456500
16.650000 0.454165
16.660000 0.455233
16.670000 0.454731
16.680000 0.454230
16.690000 0.453729
16.700000 0.453228
16.710000 0.452727
16.720000 0.452226
16.730000 0.451726
16.740000 0.451226
16.750000 0.450726
16.760000 0.450227
16.770000 0.449469
16.780000 0.449229
16.790000 0.448472
16.800000 0.446686
16.810000 0.443375
16.820000 0.446206
16.830000 0.446480
16.840000 0.445469
16.850000 0.445485
16.860000 0.444476
16.870000 0.444492
16.880000 0.443485
16.890000 0.442734
16.900000 0.442494
16.910000 0.442508
16.920000 0.441504
16.930000 0.441517
16.940000 0.440515
16.950000 0.439767
16.960000 0.439527
16.970000 0.438780
16.980000 0.438541
16.990000 0.437794
17.000000 0.437554
17.010000 0.436809
17.020000 0.436569
17.030000 0.435826
17.040000 0.435585
17.050000 0.434843
17.060000 0.434603
17.070000 0.433861
17.080000 0.433370
17.090000 0.432880
17.100000 0.432390
17.110000 0.431900
17.120000 0.431411
17.130000 0.430922
17.140000 0.430433
17.150000 0.429944
17.160000 0.429455
17.170000 0.428967
17.180000 0.428479
17.190000 0.427992
17.200000 0.427504
17.210000 0.427017
17.220000 0.426530
17.230000 0.426044
17.240000 0.425557
17.250000 0.425071
17.260000 0.424585
17.270000 0.424100
17.280000 0.423615
17.290000 0.423130
17.300000 0.422645
17.310000 0.422160
17.320000 0.421676
17.330000 0.421192
17.340000 0.420709
17.350000 0.420227
17.360000 0.419742
17.370000 0.419260
17.380000 0.418777
17.390000 0.418295
17.400000 0.417813
17.410000 0.417331
17.420000 0.416850
17.430000 0.416369
17.440000 0.415888
17.450000 0.415407
17.460000 0.414927
17.470000 0.414447
17.480000 0.413968
17.490000 0.413488
17.500000 0.413248
17.510000 0.412530
17.520000 0.412052
17.530000 0.411573
17.540000 0.411333
17.550000 0.410618
17.560000 0.410140
17.570000 0.409663
17.580000 0.409422
17.590000 0.408710
17.600000 0.408469
17.610000 0.407758
17.620000 0.407517
17.630000 0.407510
17.640000 0.406566
17.650000 0.406558
17.660000 0.405616
17.670000 0.405607
17.680000 0.404667
17.690000 0.404659
17.700000 0.403720
17.710000 0.403711
17.720000 0.403470
17.730000 0.402764
17.740000 0.402523
17.750000 0.401819
17.760000 0.401577
17.770000 0.399497
17.780000 0.400633
17.790000 0.400162
17.800000 0.399690
17.810000 0.399219
17.820000 0.398748
17.830000 0.398278
17.840000 0.397808
17.850000 0.397338
17.860000 0.396868
17.870000 0.396399
17.880000 0.395930
17.890000 0.395461
17.900000 0.394993
17.910000 0.394525
17.920000 0.394057
17.930000 0.393817
17.940000 0.393123
17.950000 0.392882
17.960000 0.392190
17.970000 0.391949
17.980000 0.391934
17.990000 0.391018
18.000000 0.391002
18.010000 0.390087
18.020000 0.390071
18.030000 0.389828
18.040000 0.389141
18.050000 0.388900
18.060000 0.388212
18.070000 0.387970
18.080000 0.387508
18.090000 0.387044
18.100000 0.386581
18.110000 0.386118
18.120000 0.385656
18.130000 0.385194
18.140000 0.384732
18.150000 0.384270
18.160000 0.383809
18.170000 0.383569
18.180000 0.382888
18.190000 0.382648
18.200000 0.382628
18.210000 0.381728
18.220000 0.381707
18.230000 0.380809
18.240000 0.380788
18.250000 0.380548
18.260000 0.379870
18.270000 0.379630
18.280000 0.378954
18.290000 0.378713
18.300000 0.378256
18.310000 0.377798
18.320000 0.377341
18.330000 0.376885
18.340000 0.376428
18.350000 0.376189
18.360000 0.375516
18.370000 0.375279
18.380000 0.375253
18.390000 0.374367
18.400000 0.374343
18.410000 0.373758
18.420000 0.373390
18.430000 0.372914
18.440000 0.372568
18.450000 0.372178
18.460000 0.371746
18.470000 0.371379
18.480000 0.370948
18.490000 0.370495
18.500000 0.370192
18.510000 0.369740
18.520000 0.369373
18.530000 0.369007
18.540000 0.368513
18.550000 0.368189
18.560000 0.367823
18.570000 0.367373
18.580000 0.367007
18.590000 0.366621
18.600000 0.366213
18.610000 0.365806
18.620000 0.365378
18.630000 0.364951
18.640000 0.364670
18.650000 0.364222
18.660000 0.363921
18.670000 0.363536
18.680000 0.363130
18.690000 0.362746
18.700000 0.362382
18.710000 0.361998
18.720000 0.361593
18.730000 0.361209
18.740000 0.360846
18.750000 0.360463
18.760000 0.360059
18.770000 0.359614
18.780000 0.359314
18.790000 0.358746
18.800000 0.358591
18.810000 0.358147
18.820000 0.357785
18.830000 0.357363
18.840000 0.357063
18.850000 0.356682
18.860000 0.356281
18.870000 0.355899
18.880000 0.355294
18.890000 0.355179
18.900000 0.354819
18.910000 0.354439
18.920000 0.354039
18.930000 0.353720
18.940000 0.353320
18.950000 0.352941
18.960000 0.352582
18.970000 0.352223
18.980000 0.351865
18.990000 0.351486
19.000000 0.351068
19.010000 0.350407
19.020000 0.350372
19.030000 0.349994
19.040000 0.348836
19.050000 0.348305
19.060000 0.347919
19.070000 0.348325
19.080000 0.348189
19.090000 0.347853
19.100000 0.347496
19.110000 0.347120
19.120000 0.346784
19.130000 0.346408
19.140000 0.346013
19.150000 0.345697
19.160000 0.345302
19.170000 0.344987
19.180000 0.344553
19.190000 0.344277
19.200000 0.343883
19.210000 0.343568
19.220000 0.343175
19.230000 0.342860
19.240000 0.342467
19.250000 0.342153
19.260000 0.341760
19.270000 0.341446
19.280000 0.341053
19.290000 0.340740
19.300000 0.340407
19.310000 0.340035
19.320000 0.339702
19.330000 0.339330
19.340000 0.338997
19.350000 0.338646
19.360000 0.338294
19.370000 0.337942
19.380000 0.337591
19.390000 0.337240
19.400000 0.336908
19.410000 0.336538
19.420000 0.336207
19.430000 0.335876
19.440000 0.335564
19.450000 0.335195
19.460000 0.334865
19.470000 0.334515
19.480000 0.334165
19.490000 0.333816
19.500000 0.333486
19.510000 0.333175
19.520000 0.332789
19.530000 0.332363
19.540000 0.332149
19.550000 0.331800
19.560000 0.331357
19.570000 0.331105
19.580000 0.330776
19.590000 0.330466
19.600000 0.330138
19.610000 0.329791
19.620000 0.329444
19.630000 0.329154
19.640000 0.328769
19.650000 0.328461
19.660000 0.328133
19.670000 0.327787
19.680000 0.327460
19.690000 0.327152
19.700000 0.326825
19.710000 0.326480
19.720000 0.326154
19.730000 0.325846
19.740000 0.325520
19.750000 0.325176
19.760000 0.324850
19.770000 0.324543
19.780000 0.324217
19.790000 0.323873
19.800000 0.323548
19.810000 0.323204
19.820000 0.322917
19.830000 0.322574
19.840000 0.322249
19.850000 0.321943
19.860000 0.321619
19.870000 0.321277
19.880000 0.320953
19.890000 0.320648
19.900000 0.320324
19.910000 0.319982
19.920000 0.319714
19.930000 0.319373
19.940000 0.319050
19.950000 0.318420
19.960000 0.318423
19.970000 0.318082
19.980000 0.317705
19.990000 0.317456
20.000000 0.317153
20.010000 0.316849
20.020000 0.316528
20.030000 0.316243
20.040000 0.315921
20.050000 0.315582
20.060000 0.315261
20.070000 0.314958
20.080000 0.314638
20.090000 0.314353
20.100000 0.314033
20.110000 0.313685
20.120000 0.313321
20.130000 0.313091
20.140000 0.312772
20.150000 0.312488
20.160000 0.312169
20.170000 0.311868
20.180000 0.311567
20.190000 0.311265
20.200000 0.310965
20.210000 0.310664
20.220000 0.310346
20.230000 0.310063
20.240000 0.309745
20.250000 0.309409
20.260000 0.309145
20.270000 0.308810
20.280000 0.308546
20.290000 0.308211
20.300000 0.307893
20.310000 0.307612
20.320000 0.307295
20.330000 0.307014
20.340000 0.306698
20.350000 0.306417
20.360000 0.306101
20.370000 0.305820
20.380000 0.305504
20.390000 0.305223
20.400000 0.304908
20.410000 0.304628
20.420000 0.304313
20.430000 0.304033
20.440000 0.303770
20.450000 0.303438
20.460000 0.303176
20.470000 0.302844
20.480000 0.302374
20.490000 0.302303
20.500000 0.301989
20.510000 0.301710
20.520000 0.301396
20.530000 0.301083
20.540000 0.300805
20.550000 0.300543
20.560000 0.300265
20.570000 0.299952
20.580000 0.299674
20.590000 0.299379
20.600000 0.299084
20.610000 0.298789
20.620000 0.298511
20.630000 0.298200
20.640000 0.297923
20.650000 0.297662
20.660000 0.297385
20.670000 0.297091
20.680000 0.296797
20.690000 0.296503
20.700000 0.296210
20.710000 0.295916
20.720000 0.295640
20.730000 0.295380
20.740000 0.295104
20.750000 0.294812
20.760000 0.294316
20.770000 0.294159
20.780000 0.293883
20.790000 0.293642
20.800000 0.293416
20.810000 0.293125
20.820000 0.292732
20.830000 0.292541
20.840000 0.292266
20.850000 0.291959
20.860000 0.291700
20.870000 0.291443
20.880000 0.291083
20.890000 0.290844
20.900000 0.290637
20.910000 0.290346
20.920000 0.290056
20.930000 0.289766
20.940000 0.287519
20.950000 0.289252
20.960000 0.288962
20.970000 0.288672
20.980000 0.288383
20.990000 0.288160
21.000000 0.287870
21.010000 0.287581
21.020000 0.287358
21.030000 0.287069
21.040000 0.286781
21.050000 0.286541
21.060000 0.286270
21.070000 0.285965
21.080000 0.285710
21.090000 0.285454
21.100000 0.285182
21.110000 0.284895
21.120000 0.284624
21.130000 0.284287
21.140000 0.284098
21.150000 0.283811
21.160000 0.283540
21.170000 0.283286
21.180000 0.283016
21.190000 0.282794
21.200000 0.282508
21.210000 0.282221
21.220000 0.282000
21.230000 0.281714
21.240000 0.281428
21.250000 0.281191
21.260000 0.280921
21.270000 0.280636
21.280000 0.280415
21.290000 0.280130
21.300000 0.279861
21.310000 0.279625
21.320000 0.279340
21.330000 0.279103
21.340000 0.278610
21.350000 0.278503
21.360000 0.278122
21.370000 0.277935
21.380000 0.277683
21.390000 0.277335
21.400000 0.277116
21.410000 0.276976
21.420000 0.276709
21.430000 0.276521
21.440000 0.275613
21.450000 0.275796
21.460000 0.275342
21.470000 0.275366
21.480000 0.275250
21.490000 0.274968
21.500000 0.274749
21.510000 0.274466
21.520000 0.270128
21.530000 0.273966
21.540000 0.273700
21.550000 0.273340
21.560000 0.273201
21.570000 0.272966
21.580000 0.272701
21.590000 0.272467
21.600000 0.272202
21.610000 0.271968
21.620000 0.271703
21.630000 0.271470
21.640000 0.271190
21.650000 0.270972
21.660000 0.270692
21.670000 0.270474
21.680000 0.270210
21.690000 0.269251
21.700000 0.269714
21.710000 0.269481
21.720000 0.269218
21.730000 0.268985
21.740000 0.268706
21.750000 0.268489
21.760000 0.268273
21.770000 0.267994
21.780000 0.267777
21.790000 0.267499
21.800000 0.267283
21.810000 0.267006
21.820000 0.266789
21.830000 0.266511
21.840000 0.266295
21.850000 0.266018
21.860000 0.265802
21.870000 0.265541
21.880000 0.265310
21.890000 0.265094
21.900000 0.264833
21.910000 0.264602
21.920000 0.264387
21.930000 0.264095
21.940000 0.263844
21.950000 0.263241
21.960000 0.262587
21.970000 0.263023
21.980000 0.262763
21.990000 0.262699
22.000000 0.262485
22.010000 0.262210
22.020000 0.261995
22.030000 0.261766
22.040000 0.261506
22.050000 0.261292
22.060000 0.261032
22.070000 0.260803
22.080000 0.260589
22.090000 0.260315
22.100000 0.260102
22.110000 0.259888
22.120000 0.259614
22.130000 0.259401
22.140000 0.259187
22.150000 0.258914
22.160000 0.258656
22.170000 0.258488
22.180000 0.258231
22.190000 0.258002
22.200000 0.257789
22.210000 0.257561
22.220000 0.257304
22.230000 0.257091
22.240000 0.256879
22.250000 0.256607
22.260000 0.256395
22.270000 0.256182
22.280000 0.255926
22.290000 0.255699
22.300000 0.255487
22.310000 0.255260
22.320000 0.255004
22.330000 0.254412
22.340000 0.254335
22.350000 0.254309
22.360000 0.254098
22.370000 0.253887
22.380000 0.253676
22.390000 0.253450
22.400000 0.253209
22.410000 0.252983
22.420000 0.252772
22.430000 0.252561
22.440000 0.252350
22.450000 0.252082
22.460000 0.251871
22.470000 0.251660
22.480000 0.251450
22.490000 0.251224
22.500000 0.250971
22.510000 0.250761
22.520000 0.250550
22.530000 0.250326
22.540000 0.250130
22.550000 0.249863
22.560000 0.249653
22.570000 0.249443
22.580000 0.249233
22.590000 0.249024
22.600000 0.248814
22.610000 0.248548
22.620000 0.248338
22.630000 0.248129
22.640000 0.247920
22.650000 0.247711
22.660000 0.247502
22.670000 0.247236
22.680000 0.246857
22.690000 0.246818
22.700000 0.246610
22.710000 0.246401
22.720000 0.246192
22.730000 0.245825
22.740000 0.245734
22.750000 0.245511
22.760000 0.245303
22.770000 0.244931
22.780000 0.244887
22.790000 0.244679
22.800000 0.244471
22.810000 0.244264
22.820000 0.244056
22.830000 0.243849
22.840000 0.243641
22.850000 0.243378
22.860000 0.243171
22.870000 0.242963
22.880000 0.242756
22.890000 0.242507
22.900000 0.242342
22.910000 0.242136
22.920000 0.241929
22.930000 0.241708
22.940000 0.241516
22.950000 0.241309
22.960000 0.241103
22.970000 0.240896
22.980000 0.240690
22.990000 0.240484
23.000000 0.240278
23.010000 0.240072
23.020000 0.239825
23.030000 0.239606
23.040000 0.239400
23.050000 0.239194
23.060000 0.238989
23.070000 0.238769
23.080000 0.238578
23.090000 0.238373
23.100000 0.238167
23.110000 0.237962
23.120000 0.237757
23.130000 0.237553
23.140000 0.237348
23.150000 0.237143
23.160000 0.236938
23.170000 0.236734
23.180000 0.236530
23.190000 0.236380
23.200000 0.236073
23.210000 0.235868
23.220000 0.235752
23.230000 0.235509
23.240000 0.235305
23.250000 0.235020
23.260000 0.233106
23.270000 0.234343
23.280000 0.234450
23.290000 0.234341
23.300000 0.234137
23.310000 0.233934
23.320000 0.233731
23.330000 0.233527
23.340000 0.233354
23.350000 0.233148
23.360000 0.232945
23.370000 0.232743
23.380000 0.232540
23.390000 0.232337
23.400000 0.232135
23.410000 0.231932
23.420000 0.231744
23.430000 0.231580
23.440000 0.231379
23.450000 0.231177
23.460000 0.230975
23.470000 0.230773
23.480000 0.230571
23.490000 0.230369
23.500000 0.230168
23.510000 0.230006
23.520000 0.229817
23.530000 0.229616
23.540000 0.229414
23.550000 0.229200
23.560000 0.229012
23.570000 0.228811
23.580000 0.228624
23.590000 0.228462
23.600000 0.228261
23.610000 0.228061
23.620000 0.227860
23.630000 0.227660
23.640000 0.227459
23.650000 0.227311
23.660000 0.227111
23.670000 0.226911
23.680000 0.226711
23.690000 0.226511
23.700000 0.226324
23.710000 0.226163
23.720000 0.225963
23.730000 0.225764
23.740000 0.225564
23.750000 0.225365
23.760000 0.225217
23.770000 0.225018
23.780000 0.224819
23.790000 0.224619
23.800000 0.224472
23.810000 0.224273
23.820000 0.224037
23.830000 0.223875
23.840000 0.223677
23.850000 0.223478
23.860000 0.223294
23.870000 0.223120
23.880000 0.222934
23.890000 0.222736
23.900000 0.222538
23.910000 0.222391
23.920000 0.222193
23.930000 0.222008
23.940000 0.221849
23.950000 0.221651
23.960000 0.221453
23.970000 0.221307
23.980000 0.221109
23.990000 0.220912
24.000000 0.220715
24.010000 0.220568
24.020000 0.220371
24.030000 0.220174
24.040000 0.220027
24.050000 0.219831
24.060000 0.219634
24.070000 0.219475
24.080000 0.219291
24.090000 0.219095
24.100000 0.218912
24.110000 0.218752
24.120000 0.218556
24.130000 0.218360
24.140000 0.218214
24.150000 0.218018
24.160000 0.217822
24.170000 0.217677
24.180000 0.217481
24.190000 0.217285
24.200000 0.217140
24.210000 0.216944
24.220000 0.216749
24.230000 0.216603
24.240000 0.216408
24.250000 0.216213
24.260000 0.216068
24.270000 0.215873
24.280000 0.215690
24.290000 0.215533
24.300000 0.215338
24.310000 0.215181
24.320000 0.214999
24.330000 0.214804
24.340000 0.214659
24.350000 0.214465
24.360000 0.214283
24.370000 0.214126
24.380000 0.213932
24.390000 0.213775
24.400000 0.213594
24.410000 0.213400
24.420000 0.213255
24.430000 0.213062
24.440000 0.212917
24.450000 0.212724
24.460000 0.212543
24.470000 0.212386
24.480000 0.212193
24.490000 0.212049
24.500000 0.211856
24.510000 0.211700
24.520000 0.211519
24.530000 0.211326
24.540000 0.211146
24.550000 0.210990
24.560000 0.210846
24.570000 0.210654
24.580000 0.210510
24.590000 0.210318
24.600000 0.210125
24.610000 0.209958
24.620000 0.209790
24.630000 0.209646
24.640000 0.209455
24.650000 0.209311
24.660000 0.209120
24.670000 0.208976
24.680000 0.208747
24.690000 0.208629
24.700000 0.208450
24.710000 0.208295
24.720000 0.208116
24.730000 0.207961
24.740000 0.207782
24.750000 0.207627
24.760000 0.207448
24.770000 0.207293
24.780000 0.207115
24.790000 0.206960
24.800000 0.206782
24.810000 0.206627
24.820000 0.206449
24.830000 0.206294
24.840000 0.206116
24.850000 0.205962
24.860000 0.205784
24.870000 0.205641
24.880000 0.205350
24.890000 0.205309
24.900000 0.205120
24.910000 0.204977
24.920000 0.204800
24.930000 0.204634
24.940000 0.204469
24.950000 0.204315
24.960000 0.204126
24.970000 0.203984
24.980000 0.203842
24.990000 0.203653
25.000000 0.201325
25.010000 0.203346
25.020000 0.203158
25.030000 0.203016
25.040000 0.202862
25.050000 0.202651
25.060000 0.202545
25.070000 0.202356
25.080000 0.202215
25.090000 0.202006
25.100000 0.201886
25.110000 0.201744
25.120000 0.201557
25.130000 0.201416
25.140000 0.201263
25.150000 0.201087
25.160000 0.200900
25.170000 0.200759
25.180000 0.200618
25.190000 0.200442
25.200000 0.200290
25.210000 0.200149
25.220000 0.199928
25.230000 0.199822
25.240000 0.199670
25.250000 0.199495
25.260000 0.199343
25.270000 0.199179
25.280000 0.199027
25.290000 0.198887
25.300000 0.198701
25.310000 0.198560
25.320000 0.198420
25.330000 0.198246
25.340000 0.198094
25.350000 0.197954
25.360000 0.197769
25.370000 0.197628
25.380000 0.197477
25.390000 0.197315
25.400000 0.197163
25.410000 0.197023
25.420000 0.196839
25.430000 0.196699
25.440000 0.196547
25.450000 0.196386
25.460000 0.196234
25.470000 0.196095
25.480000 0.195944
25.490000 0.195771
25.500000 0.195632
25.510000 0.195492
25.520000 0.195308
25.530000 0.195169
25.540000 0.195018
25.550000 0.194857
25.560000 0.194706
25.570000 0.194567
25.580000 0.194417
25.590000 0.194245
25.600000 0.194106
25.610000 0.193967
25.620000 0.193817
25.630000 0.193645
25.640000 0.193506
25.650000 0.193367
25.660000 0.193185
25.670000 0.193046
25.680000 0.192896
25.690000 0.192768
25.700000 0.192586
25.710000 0.192448
25.720000 0.192309
25.730000 0.192170
25.740000 0.191989
25.750000 0.191850
25.760000 0.191712
25.770000 0.191574
25.780000 0.191425
25.790000 0.191254
25.800000 0.191116
25.810000 0.190978
25.820000 0.190830
25.830000 0.190670
25.840000 0.190522
25.850000 0.190384
25.860000 0.190235
25.870000 0.190076
25.880000 0.189928
25.890000 0.189790
25.900000 0.189652
25.910000 0.189515
25.920000 0.189366
25.930000 0.189208
25.940000 0.189059
25.950000 0.188922
25.960000 0.188785
25.970000 0.188648
25.980000 0.188500
25.990000 0.188331
26.000000 0.188194
26.010000 0.188056
26.020000 0.187909
26.030000 0.187751
26.040000 0.187027
26.050000 0.187467
26.060000 0.187330
26.070000 0.187193
26.080000 0.187057
26.090000 0.186920
26.100000 0.186772
26.110000 0.186615
26.120000 0.186468
26.130000 0.186332
26.140000 0.186185
26.150000 0.186059
26.160000 0.185913
26.170000 0.185755
26.180000 0.185608
26.190000 0.185419
26.200000 0.185337
26.210000 0.185201
26.220000 0.185065
26.230000 0.184929
26.240000 0.184623
26.250000 0.184615
26.260000 0.184510
26.270000 0.184355
26.280000 0.184208
26.290000 0.184073
26.300000 0.183937
26.310000 0.183802
26.320000 0.183667
26.330000 0.183531
26.340000 0.183385
26.350000 0.183252
26.360000 0.183105
26.370000 0.182970
26.380000 0.182834
26.390000 0.182699
26.400000 0.182564
26.410000 0.182419
26.420000 0.182264
26.430000 0.182149
26.440000 0.181994
26.450000 0.181849
26.460000 0.181724
26.470000 0.181579
26.480000 0.181455
26.490000 0.181310
26.500000 0.181176
26.510000 0.181042
26.520000 0.180907
26.530000 0.180773
26.540000 0.180638
26.550000 0.180504
26.560000 0.180370
26.570000 0.180236
26.580000 0.180102
26.590000 0.179968
26.600000 0.179833
26.610000 0.179689
26.620000 0.179565
26.630000 0.179422
26.640000 0.179299
26.650000 0.179155
26.660000 0.179031
26.670000 0.178856
26.680000 0.178764
26.690000 0.178620
26.700000 0.178497
26.710000 0.178294
26.720000 0.178230
26.730000 0.178086
26.740000 0.177963
26.750000 0.177820
26.760000 0.177697
26.770000 0.177554
26.780000 0.177431
26.790000 0.177288
26.800000 0.177165
26.810000 0.177032
26.820000 0.176899
26.830000 0.176756
26.840000 0.176634
26.850000 0.176501
26.860000 0.176368
26.870000 0.176236
26.880000 0.176103
26.890000 0.175971
26.900000 0.175849
26.910000 0.175706
26.920000 0.175584
26.930000 0.175442
26.940000 0.175320
26.950000 0.175206
26.960000 0.175055
26.970000 0.174942
26.980000 0.174820
26.990000 0.174678
27.000000 0.174560
27.010000 0.174431
27.020000 0.174301
27.030000 0.174171
27.040000 0.174039
27.050000 0.173908
27.060000 0.173776
27.070000 0.173644
27.080000 0.173513
27.090000 0.173381
27.100000 0.173250
27.110000 0.173119
27.120000 0.172997
27.130000 0.172876
27.140000 0.172754
27.150000 0.172632
27.160000 0.172502
27.170000 0.172371
27.180000 0.172240
27.190000 0.172109
27.200000 0.171988
27.210000 0.171867
27.220000 0.171745
27.230000 0.171624
27.240000 0.171494
27.250000 0.171363
27.260000 0.171232
27.270000 0.171102
27.280000 0.170981
27.290000 0.170860
27.300000 0.170740
27.310000 0.170619
27.320000 0.170498
27.330000 0.170378
27.340000 0.170257
27.350000 0.170136
27.360000 0.170007
27.370000 0.169877
27.380000 0.169747
27.390000 0.169617
27.400000 0.169496
27.410000 0.169376
27.420000 0.169256
27.430000 0.169136
27.440000 0.169016
27.450000 0.168896
27.460000 0.168776
27.470000 0.168655
27.480000 0.168526
27.490000 0.168397
27.500000 0.168267
27.510000 0.168138
27.520000 0.168018
27.530000 0.167898
27.540000 0.167779
27.550000 0.167659
27.560000 0.167540
27.570000 0.167420
27.580000 0.167301
27.590000 0.167181
27.600000 0.167062
27.610000 0.166943
27.620000 0.166823
27.630000 0.166704
27.640000 0.166585
27.650000 0.166466
27.660000 0.166346
27.670000 0.166227
27.680000 0.166108
27.690000 0.165989
27.700000 0.165870
27.710000 0.165751
27.720000 0.165633
27.730000 0.165514
27.740000 0.165395
27.750000 0.165275
27.760000 0.165148
27.770000 0.165020
27.780000 0.164892
27.790000 0.164763
27.800000 0.164655
27.810000 0.164546
27.820000 0.164437
27.830000 0.164327
27.840000 0.164209
27.850000 0.164091
27.860000 0.163973
27.870000 0.163854
27.880000 0.163736
27.890000 0.163618
27.900000 0.163500
27.910000 0.163382
27.920000 0.163264
27.930000 0.163146
27.940000 0.163028
27.950000 0.162910
27.960000 0.162792
27.970000 0.162674
27.980000 0.162557
27.990000 0.162439
28.000000 0.162321
28.010000 0.162204
28.020000 0.162086
28.030000 0.161968
28.040000 0.161842
28.050000 0.161715
28.060000 0.161588
28.070000 0.161462
28.080000 0.161363
28.090000 0.161264
28.100000 0.161165
28.110000 0.161066
28.120000 0.160950
28.130000 0.160833
28.140000 0.160715
28.150000 0.160598
28.160000 0.160491
28.170000 0.160383
28.180000 0.160275
28.190000 0.160167
28.200000 0.160051
28.210000 0.159934
28.220000 0.159817
28.230000 0.159700
28.240000 0.159584
28.250000 0.159467
28.260000 0.159351
28.270000 0.159234
28.280000 0.159126
28.290000 0.159019
28.300000 0.158912
28.310000 0.158805
28.320000 0.158698
28.330000 0.158590
28.340000 0.158474
28.350000 0.158358
28.360000 0.158242
28.370000 0.158126
28.380000 0.158019
28.390000 0.157912
28.400000 0.157805
28.410000 0.157698
28.420000 0.157582
28.430000 0.157466
28.440000 0.157351
28.450000 0.157233
28.460000 0.157083
28.470000 0.156931
28.480000 0.156780
28.490000 0.156631
28.500000 0.156557
28.510000 0.156487
28.520000 0.156417
28.530000 0.156345
28.540000 0.156240
28.550000 0.156134
28.560000 0.156027
28.570000 0.155921
28.580000 0.155815
28.590000 0.155709
28.600000 0.155602
28.610000 0.155496
28.620000 0.155390
28.630000 0.155284
28.640000 0.155178
28.650000 0.155071
28.660000 0.154957
28.670000 0.154842
28.680000 0.154727
28.690000 0.154613
28.700000 0.154507
28.710000 0.154401
28.720000 0.154295
28.730000 0.154189
28.740000 0.154084
28.750000 0.153978
28.760000 0.153873
28.770000 0.153767
28.780000 0.153662
28.790000 0.153556
28.800000 0.153451
28.810000 0.153345
28.820000 0.153231
28.830000 0.153117
28.840000 0.153003
28.850000 0.152889
28.860000 0.152792
28.870000 0.152696
28.880000 0.152600
28.890000 0.152503
28.900000 0.152398
28.910000 0.152293
28.920000 0.152188
28.930000 0.152083
28.940000 0.151978
28.950000 0.151873
28.960000 0.151768
28.970000 0.151663
28.980000 0.151559
28.990000 0.151454
29.000000 0.151349
29.010000 0.151244
29.020000 0.151140
29.030000 0.151035
29.040000 0.150931
29.050000 0.150826
29.060000 0.150722
29.070000 0.150617
29.080000 0.150513
29.090000 0.150408
29.100000 0.150304
29.110000 0.150200
29.120000 0.150095
29.130000 0.149991
29.140000 0.149887
29.150000 0.149783
29.160000 0.149678
29.170000 0.149574
29.180000 0.149470
29.190000 0.149366
29.200000 0.149262
29.210000 0.149158
29.220000 0.149063
29.230000 0.148968
29.240000 0.148872
29.250000 0.148777
29.260000 0.148673
29.270000 0.148570
29.280000 0.148466
29.290000 0.148362
29.300000 0.148258
29.310000 0.148155
29.320000 0.148051
29.330000 0.147948
29.340000 0.147853
29.350000 0.147758
29.360000 0.147663
29.370000 0.147568
29.380000 0.147465
29.390000 0.147361
29.400000 0.147258
29.410000 0.147155
29.420000 0.147051
29.430000 0.146948
29.440000 0.146845
29.450000 0.146742
29.460000 0.146647
29.470000 0.146553
29.480000 0.146458
29.490000 0.146363
29.500000 0.146261
29.510000 0.146158
29.520000 0.146055
29.530000 0.145952
29.540000 0.145866
29.550000 0.145780
29.560000 0.145678
29.570000 0.145575
29.580000 0.145472
29.590000 0.145370
29.600000 0.145276
29.610000 0.145181
29.620000 0.145087
29.630000 0.144993
29.640000 0.144891
29.650000 0.144788
29.660000 0.144686
29.670000 0.144584
29.680000 0.144490
29.690000 0.144396
29.700000 0.144302
29.710000 0.144207
29.720000 0.144106
29.730000 0.144004
29.740000 0.143902
29.750000 0.143800
29.760000 0.143706
29.770000 0.143612
29.780000 0.143519
29.790000 0.143425
29.800000 0.143323
29.810000 0.143222
29.820000 0.143120
29.830000 0.143018
29.840000 0.142924
29.850000 0.142831
29.860000 0.142738
29.870000 0.142644
29.880000 0.142551
29.890000 0.142458
29.900000 0.142364
29.910000 0.142271
29.920000 0.142178
29.930000 0.142085
29.940000 0.141992
29.950000 0.141898
29.960000 0.141805
29.970000 0.141712
29.980000 0.141619
29.990000 0.141526
